File: dat/as_pf_BH-steel.UXD
; C:\DIFFDAT1\GIFT\MML\youngung\11-1-BH\as_R.raw(Diffrac Plus V1.01 file) converted by XCH V1.0
_FILEVERSION=2
_SITE='Korea'
_USER='Admin'
_SAMPLE_CHANGER_CODE=0
_ATTACHMENTS_CODE=0
_GONIOMETER_RADIUS=300
_FIXED_DIVSLIT=1.000000
_FIXED_SAMPLESLIT=0.000000
_FIXED_DETSLIT=0.100000
_MONOCHROMATOR=0
; None
_THIN_FILM='N'
_BETA_FILTER='Y'
_FIXED_ANTISLIT=0.600000
_ANALYZER_CODE=0
; None
_DATEMEASURED='16-Apr-2011 18:18:38'
_WL_UNIT='A'
_WL1=1.788970
_WL2=1.792850
_WL3=1.620790
_WLRATIO=0.500000
_ANODE='Co'
; (Data for Range number 1)
_DRIVE='PHI'
_STEPTIME=2.000000
_STEPSIZE=5.000000
_STEPMODE='C'
_START=0.000000
_THETA=26.2245
_2THETA=52.449
_KHI=0.000000
_PHI=0.000000
_X=0.000000
_Y=0.000000
_Z=0.000000
_DIVERGENCE=3.000000
_ANTISCATTER=3.000000
_DETECTOR=1
; S.C.
_HV=687
_GAIN=80
_LLD=0.690000
_ULD=1.866000
_DETECTORSLIT='unkn'
_AUX1=0.000000
_AUX2=0.000000
_AUX3=0.000000
_TIMESTARTED=13
_TEMP_RATE=0.000000
_TEMP_DELAY=0.000000
_KV=35
_MA=40
_RANGE_WL=1.788970
_3DPLANE=0
_2THETACOUNTS
   0.0000      4824
   5.0000      5140
  10.0000      4948
  15.0000      4969
  20.0000      5076
  25.0000      4907
  30.0000      4846
  35.0000      4765
  40.0000      4631
  45.0000      4632
  50.0000      4520
  55.0000      4743
  60.0000      4783
  65.0000      4572
  70.0000      4629
  75.0000      4743
  80.0000      4766
  85.0000      4683
  90.0000      4571
  95.0000      4663
 100.0000      4644
 105.0000      4601
 110.0000      4658
 115.0000      4688
 120.0000      4742
 125.0000      4558
 130.0000      4660
 135.0000      4621
 140.0000      4494
 145.0000      4550
 150.0000      4639
 155.0000      4843
 160.0000      4752
 165.0000      4756
 170.0000      4823
 175.0000      4983
 180.0000      4915
 185.0000      5175
 190.0000      5103
 195.0000      4985
 200.0000      5048
 205.0000      4990
 210.0000      4776
 215.0000      4809
 220.0000      4647
 225.0000      4795
 230.0000      4606
 235.0000      4716
 240.0000      4681
 245.0000      4751
 250.0000      4800
 255.0000      5017
 260.0000      5142
 265.0000      5112
 270.0000      5127
 275.0000      5177
 280.0000      5104
 285.0000      5144
 290.0000      5103
 295.0000      5003
 300.0000      4880
 305.0000      4813
 310.0000      4858
 315.0000      4809
 320.0000      4825
 325.0000      4880
 330.0000      4891
 335.0000      4871
 340.0000      4824
 345.0000      4845
 350.0000      5008
 355.0000      4954
; (Data for Range number 2)
_DRIVE='PHI'
_STEPTIME=2.000000
_STEPSIZE=5.000000
_STEPMODE='C'
_START=0.000000
_THETA=26.2245
_2THETA=52.449
_KHI=5.000000
_PHI=0.000000
_X=0.000000
_Y=0.000000
_Z=0.000000
_DIVERGENCE=3.000000
_ANTISCATTER=3.000000
_DETECTOR=1
; S.C.
_HV=687
_GAIN=80
_LLD=0.690000
_ULD=1.866000
_DETECTORSLIT='unkn'
_AUX1=0.000000
_AUX2=0.000000
_AUX3=0.000000
_TIMESTARTED=218
_TEMP_RATE=0.000000
_TEMP_DELAY=0.000000
_KV=35
_MA=40
_RANGE_WL=1.788970
_3DPLANE=0
_2THETACOUNTS
   0.0000      5490
   5.0000      5228
  10.0000      5099
  15.0000      5311
  20.0000      5031
  25.0000      5159
  30.0000      4962
  35.0000      4524
  40.0000      4600
  45.0000      4831
  50.0000      5454
  55.0000      5277
  60.0000      4962
  65.0000      4589
  70.0000      4979
  75.0000      4814
  80.0000      4571
  85.0000      4584
  90.0000      4546
  95.0000      4835
 100.0000      4692
 105.0000      4413
 110.0000      4311
 115.0000      4599
 120.0000      4487
 125.0000      4403
 130.0000      4329
 135.0000      4155
 140.0000      4274
 145.0000      4398
 150.0000      4324
 155.0000      4341
 160.0000      4595
 165.0000      4411
 170.0000      4349
 175.0000      4938
 180.0000      4685
 185.0000      4510
 190.0000      4662
 195.0000      4767
 200.0000      4770
 205.0000      4725
 210.0000      4831
 215.0000      5126
 220.0000      5148
 225.0000      5116
 230.0000      5031
 235.0000      5305
 240.0000      5367
 245.0000      5450
 250.0000      5500
 255.0000      5427
 260.0000      5502
 265.0000      5226
 270.0000      5202
 275.0000      4891
 280.0000      4982
 285.0000      5255
 290.0000      5284
 295.0000      5694
 300.0000      5165
 305.0000      5414
 310.0000      5354
 315.0000      5064
 320.0000      5195
 325.0000      5339
 330.0000      5706
 335.0000      5800
 340.0000      5431
 345.0000      5711
 350.0000      5491
 355.0000      5266
; (Data for Range number 3)
_DRIVE='PHI'
_STEPTIME=2.000000
_STEPSIZE=5.000000
_STEPMODE='C'
_START=0.000000
_THETA=26.2245
_2THETA=52.449
_KHI=10
_PHI=0.000000
_X=0.000000
_Y=0.000000
_Z=0.000000
_DIVERGENCE=3.000000
_ANTISCATTER=3.000000
_DETECTOR=1
; S.C.
_HV=687
_GAIN=80
_LLD=0.690000
_ULD=1.866000
_DETECTORSLIT='unkn'
_AUX1=0.000000
_AUX2=0.000000
_AUX3=0.000000
_TIMESTARTED=423
_TEMP_RATE=0.000000
_TEMP_DELAY=0.000000
_KV=35
_MA=40
_RANGE_WL=1.788970
_3DPLANE=0
_2THETACOUNTS
   0.0000      5932
   5.0000      6294
  10.0000      6046
  15.0000      5915
  20.0000      5833
  25.0000      5540
  30.0000      5145
  35.0000      5102
  40.0000      5398
  45.0000      5517
  50.0000      5335
  55.0000      4877
  60.0000      5335
  65.0000      4916
  70.0000      4946
  75.0000      4909
  80.0000      4854
  85.0000      5114
  90.0000      5152
  95.0000      5250
 100.0000      4655
 105.0000      5046
 110.0000      4972
 115.0000      4888
 120.0000      4622
 125.0000      4679
 130.0000      4378
 135.0000      4395
 140.0000      4299
 145.0000      4278
 150.0000      4200
 155.0000      4757
 160.0000      4844
 165.0000      5020
 170.0000      4679
 175.0000      4340
 180.0000      4531
 185.0000      4669
 190.0000      4705
 195.0000      4970
 200.0000      5046
 205.0000      5511
 210.0000      4968
 215.0000      4921
 220.0000      5429
 225.0000      6084
 230.0000      6021
 235.0000      5263
 240.0000      5280
 245.0000      5443
 250.0000      5807
 255.0000      5875
 260.0000      6161
 265.0000      6255
 270.0000      6307
 275.0000      6426
 280.0000      6208
 285.0000      6321
 290.0000      6096
 295.0000      6195
 300.0000      6766
 305.0000      6283
 310.0000      6249
 315.0000      6176
 320.0000      6530
 325.0000      6488
 330.0000      6497
 335.0000      6675
 340.0000      6192
 345.0000      6569
 350.0000      5934
 355.0000      6083
; (Data for Range number 4)
_DRIVE='PHI'
_STEPTIME=2.000000
_STEPSIZE=5.000000
_STEPMODE='C'
_START=0.000000
_THETA=26.2245
_2THETA=52.449
_KHI=15
_PHI=0.000000
_X=0.000000
_Y=0.000000
_Z=0.000000
_DIVERGENCE=3.000000
_ANTISCATTER=3.000000
_DETECTOR=1
; S.C.
_HV=687
_GAIN=80
_LLD=0.690000
_ULD=1.866000
_DETECTORSLIT='unkn'
_AUX1=0.000000
_AUX2=0.000000
_AUX3=0.000000
_TIMESTARTED=628
_TEMP_RATE=0.000000
_TEMP_DELAY=0.000000
_KV=35
_MA=40
_RANGE_WL=1.788970
_3DPLANE=0
_2THETACOUNTS
   0.0000      7481
   5.0000      6882
  10.0000      6486
  15.0000      6321
  20.0000      6737
  25.0000      6014
  30.0000      5901
  35.0000      6125
  40.0000      5950
  45.0000      6015
  50.0000      5693
  55.0000      6051
  60.0000      6042
  65.0000      6214
  70.0000      6073
  75.0000      6302
  80.0000      6199
  85.0000      6402
  90.0000      5767
  95.0000      6019
 100.0000      6099
 105.0000      6012
 110.0000      5731
 115.0000      5603
 120.0000      5368
 125.0000      5150
 130.0000      4907
 135.0000      4938
 140.0000      4702
 145.0000      4928
 150.0000      4777
 155.0000      4889
 160.0000      5053
 165.0000      4947
 170.0000      4889
 175.0000      5101
 180.0000      5171
 185.0000      5192
 190.0000      5233
 195.0000      5308
 200.0000      5333
 205.0000      5697
 210.0000      5415
 215.0000      5784
 220.0000      6059
 225.0000      6742
 230.0000      6697
 235.0000      6301
 240.0000      6805
 245.0000      7271
 250.0000      7348
 255.0000      7179
 260.0000      7458
 265.0000      7508
 270.0000      7298
 275.0000      7421
 280.0000      7492
 285.0000      7506
 290.0000      7697
 295.0000      7739
 300.0000      8001
 305.0000      8050
 310.0000      8380
 315.0000      8215
 320.0000      8339
 325.0000      8450
 330.0000      8072
 335.0000      8247
 340.0000      8293
 345.0000      8228
 350.0000      8093
 355.0000      7642
; (Data for Range number 5)
_DRIVE='PHI'
_STEPTIME=2.000000
_STEPSIZE=5.000000
_STEPMODE='C'
_START=0.000000
_THETA=26.2245
_2THETA=52.449
_KHI=20
_PHI=0.000000
_X=0.000000
_Y=0.000000
_Z=0.000000
_DIVERGENCE=3.000000
_ANTISCATTER=3.000000
_DETECTOR=1
; S.C.
_HV=687
_GAIN=80
_LLD=0.690000
_ULD=1.866000
_DETECTORSLIT='unkn'
_AUX1=0.000000
_AUX2=0.000000
_AUX3=0.000000
_TIMESTARTED=833
_TEMP_RATE=0.000000
_TEMP_DELAY=0.000000
_KV=35
_MA=40
_RANGE_WL=1.788970
_3DPLANE=0
_2THETACOUNTS
   0.0000     12069
   5.0000     11680
  10.0000     11401
  15.0000     10502
  20.0000      9272
  25.0000      8586
  30.0000      8095
  35.0000      7996
  40.0000      7672
  45.0000      7388
  50.0000      7787
  55.0000      7309
  60.0000      7299
  65.0000      7675
  70.0000      7700
  75.0000      7918
  80.0000      7603
  85.0000      7520
  90.0000      8382
  95.0000      7811
 100.0000      7955
 105.0000      7431
 110.0000      7058
 115.0000      6899
 120.0000      6598
 125.0000      6642
 130.0000      5981
 135.0000      6191
 140.0000      6309
 145.0000      6695
 150.0000      6835
 155.0000      7241
 160.0000      7046
 165.0000      7289
 170.0000      7531
 175.0000      7447
 180.0000      7740
 185.0000      7657
 190.0000      7371
 195.0000      7500
 200.0000      7873
 205.0000      7378
 210.0000      7156
 215.0000      7657
 220.0000      7665
 225.0000      7724
 230.0000      7734
 235.0000      8752
 240.0000      8391
 245.0000      9025
 250.0000      8368
 255.0000      8973
 260.0000      9243
 265.0000      9463
 270.0000      9390
 275.0000      9051
 280.0000      9013
 285.0000      9663
 290.0000      8950
 295.0000      9598
 300.0000     10073
 305.0000     10284
 310.0000     10278
 315.0000     10634
 320.0000     10917
 325.0000     11658
 330.0000     11532
 335.0000     12480
 340.0000     12212
 345.0000     12261
 350.0000     11942
 355.0000     11842
; (Data for Range number 6)
_DRIVE='PHI'
_STEPTIME=2.000000
_STEPSIZE=5.000000
_STEPMODE='C'
_START=0.000000
_THETA=26.2245
_2THETA=52.449
_KHI=25
_PHI=0.000000
_X=0.000000
_Y=0.000000
_Z=0.000000
_DIVERGENCE=3.000000
_ANTISCATTER=3.000000
_DETECTOR=1
; S.C.
_HV=687
_GAIN=80
_LLD=0.690000
_ULD=1.866000
_DETECTORSLIT='unkn'
_AUX1=0.000000
_AUX2=0.000000
_AUX3=0.000000
_TIMESTARTED=1037
_TEMP_RATE=0.000000
_TEMP_DELAY=0.000000
_KV=35
_MA=40
_RANGE_WL=1.788970
_3DPLANE=0
_2THETACOUNTS
   0.0000     24150
   5.0000     23392
  10.0000     21974
  15.0000     20703
  20.0000     18876
  25.0000     17493
  30.0000     15416
  35.0000     13114
  40.0000     11579
  45.0000     11304
  50.0000     10207
  55.0000      9150
  60.0000      8668
  65.0000      8545
  70.0000      8999
  75.0000      8954
  80.0000      9039
  85.0000      9424
  90.0000      9753
  95.0000      9736
 100.0000      9276
 105.0000      9088
 110.0000      9167
 115.0000      8851
 120.0000      8992
 125.0000      8714
 130.0000      8663
 135.0000      9128
 140.0000     10023
 145.0000     10446
 150.0000     11962
 155.0000     13009
 160.0000     13523
 165.0000     14553
 170.0000     15000
 175.0000     14811
 180.0000     16045
 185.0000     16422
 190.0000     15847
 195.0000     14278
 200.0000     13843
 205.0000     12097
 210.0000     12126
 215.0000     11392
 220.0000     11161
 225.0000     11077
 230.0000     10949
 235.0000     10968
 240.0000     10844
 245.0000     10569
 250.0000     10561
 255.0000     10451
 260.0000     10592
 265.0000     10533
 270.0000     10721
 275.0000     11067
 280.0000     11418
 285.0000     11329
 290.0000     11587
 295.0000     11407
 300.0000     11420
 305.0000     13330
 310.0000     13482
 315.0000     14760
 320.0000     15853
 325.0000     17339
 330.0000     18842
 335.0000     19949
 340.0000     20532
 345.0000     22727
 350.0000     23731
 355.0000     23931
; (Data for Range number 7)
_DRIVE='PHI'
_STEPTIME=2.000000
_STEPSIZE=5.000000
_STEPMODE='C'
_START=0.000000
_THETA=26.2245
_2THETA=52.449
_KHI=30
_PHI=0.000000
_X=0.000000
_Y=0.000000
_Z=0.000000
_DIVERGENCE=3.000000
_ANTISCATTER=3.000000
_DETECTOR=1
; S.C.
_HV=687
_GAIN=80
_LLD=0.690000
_ULD=1.866000
_DETECTORSLIT='unkn'
_AUX1=0.000000
_AUX2=0.000000
_AUX3=0.000000
_TIMESTARTED=1243
_TEMP_RATE=0.000000
_TEMP_DELAY=0.000000
_KV=35
_MA=40
_RANGE_WL=1.788970
_3DPLANE=0
_2THETACOUNTS
   0.0000     29633
   5.0000     30378
  10.0000     29369
  15.0000     29673
  20.0000     27393
  25.0000     26909
  30.0000     24472
  35.0000     22674
  40.0000     20307
  45.0000     16936
  50.0000     14390
  55.0000     12509
  60.0000     11742
  65.0000     11194
  70.0000     10959
  75.0000     10819
  80.0000     10641
  85.0000     11122
  90.0000     11638
  95.0000     11089
 100.0000     11823
 105.0000     11242
 110.0000     11287
 115.0000     11610
 120.0000     11505
 125.0000     12389
 130.0000     12340
 135.0000     13776
 140.0000     15049
 145.0000     17929
 150.0000     20894
 155.0000     23113
 160.0000     25030
 165.0000     26368
 170.0000     27039
 175.0000     27607
 180.0000     28627
 185.0000     27093
 190.0000     27038
 195.0000     25008
 200.0000     23062
 205.0000     22192
 210.0000     19914
 215.0000     17856
 220.0000     16446
 225.0000     15259
 230.0000     13960
 235.0000     13132
 240.0000     12608
 245.0000     12081
 250.0000     12257
 255.0000     12178
 260.0000     12209
 265.0000     11668
 270.0000     11603
 275.0000     12135
 280.0000     12471
 285.0000     13030
 290.0000     13533
 295.0000     14894
 300.0000     15928
 305.0000     16663
 310.0000     18528
 315.0000     19839
 320.0000     22004
 325.0000     24887
 330.0000     25695
 335.0000     26924
 340.0000     28758
 345.0000     28878
 350.0000     28585
 355.0000     29369
; (Data for Range number 8)
_DRIVE='PHI'
_STEPTIME=2.000000
_STEPSIZE=5.000000
_STEPMODE='C'
_START=0.000000
_THETA=26.2245
_2THETA=52.449
_KHI=35
_PHI=0.000000
_X=0.000000
_Y=0.000000
_Z=0.000000
_DIVERGENCE=3.000000
_ANTISCATTER=3.000000
_DETECTOR=1
; S.C.
_HV=687
_GAIN=80
_LLD=0.690000
_ULD=1.866000
_DETECTORSLIT='unkn'
_AUX1=0.000000
_AUX2=0.000000
_AUX3=0.000000
_TIMESTARTED=1447
_TEMP_RATE=0.000000
_TEMP_DELAY=0.000000
_KV=35
_MA=40
_RANGE_WL=1.788970
_3DPLANE=0
_2THETACOUNTS
   0.0000     18185
   5.0000     18865
  10.0000     20294
  15.0000     21725
  20.0000     24376
  25.0000     25149
  30.0000     24753
  35.0000     26430
  40.0000     24422
  45.0000     22759
  50.0000     20103
  55.0000     17572
  60.0000     14722
  65.0000     13297
  70.0000     12052
  75.0000     11855
  80.0000     11603
  85.0000     12031
  90.0000     11565
  95.0000     11903
 100.0000     12108
 105.0000     12786
 110.0000     12274
 115.0000     13611
 120.0000     13918
 125.0000     15533
 130.0000     17444
 135.0000     19282
 140.0000     22115
 145.0000     24093
 150.0000     25487
 155.0000     27438
 160.0000     28196
 165.0000     26176
 170.0000     26056
 175.0000     24746
 180.0000     25303
 185.0000     24790
 190.0000     25198
 195.0000     24857
 200.0000     25721
 205.0000     26056
 210.0000     23369
 215.0000     22727
 220.0000     21384
 225.0000     18304
 230.0000     16813
 235.0000     15140
 240.0000     14068
 245.0000     13274
 250.0000     12805
 255.0000     12192
 260.0000     12156
 265.0000     11550
 270.0000     11419
 275.0000     12361
 280.0000     12467
 285.0000     12971
 290.0000     14786
 295.0000     15010
 300.0000     16683
 305.0000     18523
 310.0000     20423
 315.0000     21951
 320.0000     22323
 325.0000     23910
 330.0000     22960
 335.0000     22040
 340.0000     20144
 345.0000     19633
 350.0000     19245
 355.0000     18882
; (Data for Range number 9)
_DRIVE='PHI'
_STEPTIME=2.000000
_STEPSIZE=5.000000
_STEPMODE='C'
_START=0.000000
_THETA=26.2245
_2THETA=52.449
_KHI=40
_PHI=0.000000
_X=0.000000
_Y=0.000000
_Z=0.000000
_DIVERGENCE=3.000000
_ANTISCATTER=3.000000
_DETECTOR=1
; S.C.
_HV=687
_GAIN=80
_LLD=0.690000
_ULD=1.866000
_DETECTORSLIT='unkn'
_AUX1=0.000000
_AUX2=0.000000
_AUX3=0.000000
_TIMESTARTED=1653
_TEMP_RATE=0.000000
_TEMP_DELAY=0.000000
_KV=35
_MA=40
_RANGE_WL=1.788970
_3DPLANE=0
_2THETACOUNTS
   0.0000      9010
   5.0000     10187
  10.0000     10407
  15.0000     11094
  20.0000     13039
  25.0000     14468
  30.0000     17806
  35.0000     19887
  40.0000     21306
  45.0000     22654
  50.0000     20883
  55.0000     18976
  60.0000     17903
  65.0000     15058
  70.0000     12869
  75.0000     12448
  80.0000     11793
  85.0000     11122
  90.0000     11573
  95.0000     11885
 100.0000     12498
 105.0000     12845
 110.0000     13610
 115.0000     14019
 120.0000     15346
 125.0000     17431
 130.0000     19274
 135.0000     20824
 140.0000     22389
 145.0000     23380
 150.0000     21900
 155.0000     19532
 160.0000     18467
 165.0000     16815
 170.0000     14977
 175.0000     14117
 180.0000     14511
 185.0000     14163
 190.0000     14824
 195.0000     16077
 200.0000     16665
 205.0000     17982
 210.0000     19443
 215.0000     19432
 220.0000     20607
[...]
_AUX1=0.000000
_AUX2=0.000000
_AUX3=0.000000
_TIMESTARTED=12618
_TEMP_RATE=0.000000
_TEMP_DELAY=0.000000
_KV=35
_MA=40
_RANGE_WL=1.788970
_3DPLANE=0
_2THETACOUNTS
   0.0000      5672
; (Data for Range number 137)
_DRIVE='PHI'
_STEPTIME=20
_STEPSIZE=5.000000
_STEPMODE='S'
_START=0.000000
_THETA=52.5
_2THETA=105
_KHI=0.000000
_PHI=0.000000
_X=0.000000
_Y=0.000000
_Z=0.000000
_DIVERGENCE=3.000000
_ANTISCATTER=3.000000
_DETECTOR=1
; S.C.
_HV=687
_GAIN=80
_LLD=0.690000
_ULD=1.866000
_DETECTORSLIT='unkn'
_AUX1=0.000000
_AUX2=0.000000
_AUX3=0.000000
_TIMESTARTED=12662
_TEMP_RATE=0.000000
_TEMP_DELAY=0.000000
_KV=35
_MA=40
_RANGE_WL=1.788970
_3DPLANE=0
_2THETACOUNTS
   0.0000      6769
; (Data for Range number 138)
_DRIVE='PHI'
_STEPTIME=20
_STEPSIZE=5.000000
_STEPMODE='S'
_START=0.000000
_THETA=52.5
_2THETA=105
_KHI=5.000000
_PHI=0.000000
_X=0.000000
_Y=0.000000
_Z=0.000000
_DIVERGENCE=3.000000
_ANTISCATTER=3.000000
_DETECTOR=1
; S.C.
_HV=687
_GAIN=80
_LLD=0.690000
_ULD=1.866000
_DETECTORSLIT='unkn'
_AUX1=0.000000
_AUX2=0.000000
_AUX3=0.000000
_TIMESTARTED=12686
_TEMP_RATE=0.000000
_TEMP_DELAY=0.000000
_KV=35
_MA=40
_RANGE_WL=1.788970
_3DPLANE=0
_2THETACOUNTS
   0.0000      6729
; (Data for Range number 139)
_DRIVE='PHI'
_STEPTIME=20
_STEPSIZE=5.000000
_STEPMODE='S'
_START=0.000000
_THETA=52.5
_2THETA=105
_KHI=10
_PHI=0.000000
_X=0.000000
_Y=0.000000
_Z=0.000000
_DIVERGENCE=3.000000
_ANTISCATTER=3.000000
_DETECTOR=1
; S.C.
_HV=687
_GAIN=80
_LLD=0.690000
_ULD=1.866000
_DETECTORSLIT='unkn'
_AUX1=0.000000
_AUX2=0.000000
_AUX3=0.000000
_TIMESTARTED=12710
_TEMP_RATE=0.000000
_TEMP_DELAY=0.000000
_KV=35
_MA=40
_RANGE_WL=1.788970
_3DPLANE=0
_2THETACOUNTS
   0.0000      6770
; (Data for Range number 140)
_DRIVE='PHI'
_STEPTIME=20
_STEPSIZE=5.000000
_STEPMODE='S'
_START=0.000000
_THETA=52.5
_2THETA=105
_KHI=15
_PHI=0.000000
_X=0.000000
_Y=0.000000
_Z=0.000000
_DIVERGENCE=3.000000
_ANTISCATTER=3.000000
_DETECTOR=1
; S.C.
_HV=687
_GAIN=80
_LLD=0.690000
_ULD=1.866000
_DETECTORSLIT='unkn'
_AUX1=0.000000
_AUX2=0.000000
_AUX3=0.000000
_TIMESTARTED=12736
_TEMP_RATE=0.000000
_TEMP_DELAY=0.000000
_KV=35
_MA=40
_RANGE_WL=1.788970
_3DPLANE=0
_2THETACOUNTS
   0.0000      6618
; (Data for Range number 141)
_DRIVE='PHI'
_STEPTIME=20
_STEPSIZE=5.000000
_STEPMODE='S'
_START=0.000000
_THETA=52.5
_2THETA=105
_KHI=20
_PHI=0.000000
_X=0.000000
_Y=0.000000
_Z=0.000000
_DIVERGENCE=3.000000
_ANTISCATTER=3.000000
_DETECTOR=1
; S.C.
_HV=687
_GAIN=80
_LLD=0.690000
_ULD=1.866000
_DETECTORSLIT='unkn'
_AUX1=0.000000
_AUX2=0.000000
_AUX3=0.000000
_TIMESTARTED=12761
_TEMP_RATE=0.000000
_TEMP_DELAY=0.000000
_KV=35
_MA=40
_RANGE_WL=1.788970
_3DPLANE=0
_2THETACOUNTS
   0.0000      6734
; (Data for Range number 142)
_DRIVE='PHI'
_STEPTIME=20
_STEPSIZE=5.000000
_STEPMODE='S'
_START=0.000000
_THETA=52.5
_2THETA=105
_KHI=25
_PHI=0.000000
_X=0.000000
_Y=0.000000
_Z=0.000000
_DIVERGENCE=3.000000
_ANTISCATTER=3.000000
_DETECTOR=1
; S.C.
_HV=687
_GAIN=80
_LLD=0.690000
_ULD=1.866000
_DETECTORSLIT='unkn'
_AUX1=0.000000
_AUX2=0.000000
_AUX3=0.000000
_TIMESTARTED=12784
_TEMP_RATE=0.000000
_TEMP_DELAY=0.000000
_KV=35
_MA=40
_RANGE_WL=1.788970
_3DPLANE=0
_2THETACOUNTS
   0.0000      6735
; (Data for Range number 143)
_DRIVE='PHI'
_STEPTIME=20
_STEPSIZE=5.000000
_STEPMODE='S'
_START=0.000000
_THETA=52.5
_2THETA=105
_KHI=30
_PHI=0.000000
_X=0.000000
_Y=0.000000
_Z=0.000000
_DIVERGENCE=3.000000
_ANTISCATTER=3.000000
_DETECTOR=1
; S.C.
_HV=687
_GAIN=80
_LLD=0.690000
_ULD=1.866000
_DETECTORSLIT='unkn'
_AUX1=0.000000
_AUX2=0.000000
_AUX3=0.000000
_TIMESTARTED=12809
_TEMP_RATE=0.000000
_TEMP_DELAY=0.000000
_KV=35
_MA=40
_RANGE_WL=1.788970
_3DPLANE=0
_2THETACOUNTS
   0.0000      6736
; (Data for Range number 144)
_DRIVE='PHI'
_STEPTIME=20
_STEPSIZE=5.000000
_STEPMODE='S'
_START=0.000000
_THETA=52.5
_2THETA=105
_KHI=35
_PHI=0.000000
_X=0.000000
_Y=0.000000
_Z=0.000000
_DIVERGENCE=3.000000
_ANTISCATTER=3.000000
_DETECTOR=1
; S.C.
_HV=687
_GAIN=80
_LLD=0.690000
_ULD=1.866000
_DETECTORSLIT='unkn'
_AUX1=0.000000
_AUX2=0.000000
_AUX3=0.000000
_TIMESTARTED=12834
_TEMP_RATE=0.000000
_TEMP_DELAY=0.000000
_KV=35
_MA=40
_RANGE_WL=1.788970
_3DPLANE=0
_2THETACOUNTS
   0.0000      6884
; (Data for Range number 145)
_DRIVE='PHI'
_STEPTIME=20
_STEPSIZE=5.000000
_STEPMODE='S'
_START=0.000000
_THETA=52.5
_2THETA=105
_KHI=40
_PHI=0.000000
_X=0.000000
_Y=0.000000
_Z=0.000000
_DIVERGENCE=3.000000
_ANTISCATTER=3.000000
_DETECTOR=1
; S.C.
_HV=687
_GAIN=80
_LLD=0.690000
_ULD=1.866000
_DETECTORSLIT='unkn'
_AUX1=0.000000
_AUX2=0.000000
_AUX3=0.000000
_TIMESTARTED=12859
_TEMP_RATE=0.000000
_TEMP_DELAY=0.000000
_KV=35
_MA=40
_RANGE_WL=1.788970
_3DPLANE=0
_2THETACOUNTS
   0.0000      6588
; (Data for Range number 146)
_DRIVE='PHI'
_STEPTIME=20
_STEPSIZE=5.000000
_STEPMODE='S'
_START=0.000000
_THETA=52.5
_2THETA=105
_KHI=45
_PHI=0.000000
_X=0.000000
_Y=0.000000
_Z=0.000000
_DIVERGENCE=3.000000
_ANTISCATTER=3.000000
_DETECTOR=1
; S.C.
_HV=687
_GAIN=80
_LLD=0.690000
_ULD=1.866000
_DETECTORSLIT='unkn'
_AUX1=0.000000
_AUX2=0.000000
_AUX3=0.000000
_TIMESTARTED=12884
_TEMP_RATE=0.000000
_TEMP_DELAY=0.000000
_KV=35
_MA=40
_RANGE_WL=1.788970
_3DPLANE=0
_2THETACOUNTS
   0.0000      6628
; (Data for Range number 147)
_DRIVE='PHI'
_STEPTIME=20
_STEPSIZE=5.000000
_STEPMODE='S'
_START=0.000000
_THETA=52.5
_2THETA=105
_KHI=50
_PHI=0.000000
_X=0.000000
_Y=0.000000
_Z=0.000000
_DIVERGENCE=3.000000
_ANTISCATTER=3.000000
_DETECTOR=1
; S.C.
_HV=687
_GAIN=80
_LLD=0.690000
_ULD=1.866000
_DETECTORSLIT='unkn'
_AUX1=0.000000
_AUX2=0.000000
_AUX3=0.000000
_TIMESTARTED=12910
_TEMP_RATE=0.000000
_TEMP_DELAY=0.000000
_KV=35
_MA=40
_RANGE_WL=1.788970
_3DPLANE=0
_2THETACOUNTS
   0.0000      6590
; (Data for Range number 148)
_DRIVE='PHI'
_STEPTIME=20
_STEPSIZE=5.000000
_STEPMODE='S'
_START=0.000000
_THETA=52.5
_2THETA=105
_KHI=55
_PHI=0.000000
_X=0.000000
_Y=0.000000
_Z=0.000000
_DIVERGENCE=3.000000
_ANTISCATTER=3.000000
_DETECTOR=1
; S.C.
_HV=687
_GAIN=80
_LLD=0.690000
_ULD=1.866000
_DETECTORSLIT='unkn'
_AUX1=0.000000
_AUX2=0.000000
_AUX3=0.000000
_TIMESTARTED=12933
_TEMP_RATE=0.000000
_TEMP_DELAY=0.000000
_KV=35
_MA=40
_RANGE_WL=1.788970
_3DPLANE=0
_2THETACOUNTS
   0.0000      6572
; (Data for Range number 149)
_DRIVE='PHI'
_STEPTIME=20
_STEPSIZE=5.000000
_STEPMODE='S'
_START=0.000000
_THETA=52.5
_2THETA=105
_KHI=60
_PHI=0.000000
_X=0.000000
_Y=0.000000
_Z=0.000000
_DIVERGENCE=3.000000
_ANTISCATTER=3.000000
_DETECTOR=1
; S.C.
_HV=687
_GAIN=80
_LLD=0.690000
_ULD=1.866000
_DETECTORSLIT='unkn'
_AUX1=0.000000
_AUX2=0.000000
_AUX3=0.000000
_TIMESTARTED=12959
_TEMP_RATE=0.000000
_TEMP_DELAY=0.000000
_KV=35
_MA=40
_RANGE_WL=1.788970
_3DPLANE=0
_2THETACOUNTS
   0.0000      6869
; (Data for Range number 150)
_DRIVE='PHI'
_STEPTIME=20
_STEPSIZE=5.000000
_STEPMODE='S'
_START=0.000000
_THETA=52.5
_2THETA=105
_KHI=65
_PHI=0.000000
_X=0.000000
_Y=0.000000
_Z=0.000000
_DIVERGENCE=3.000000
_ANTISCATTER=3.000000
_DETECTOR=1
; S.C.
_HV=687
_GAIN=80
_LLD=0.690000
_ULD=1.866000
_DETECTORSLIT='unkn'
_AUX1=0.000000
_AUX2=0.000000
_AUX3=0.000000
_TIMESTARTED=12983
_TEMP_RATE=0.000000
_TEMP_DELAY=0.000000
_KV=35
_MA=40
_RANGE_WL=1.788970
_3DPLANE=0
_2THETACOUNTS
   0.0000      6809
; (Data for Range number 151)
_DRIVE='PHI'
_STEPTIME=20
_STEPSIZE=5.000000
_STEPMODE='S'
_START=0.000000
_THETA=52.5
_2THETA=105
_KHI=70
_PHI=0.000000
_X=0.000000
_Y=0.000000
_Z=0.000000
_DIVERGENCE=3.000000
_ANTISCATTER=3.000000
_DETECTOR=1
; S.C.
_HV=687
_GAIN=80
_LLD=0.690000
_ULD=1.866000
_DETECTORSLIT='unkn'
_AUX1=0.000000
_AUX2=0.000000
_AUX3=0.000000
_TIMESTARTED=13008
_TEMP_RATE=0.000000
_TEMP_DELAY=0.000000
_KV=35
_MA=40
_RANGE_WL=1.788970
_3DPLANE=0
_2THETACOUNTS
   0.0000      6787
; (Data for Range number 152)
_DRIVE='PHI'
_STEPTIME=20
_STEPSIZE=5.000000
_STEPMODE='S'
_START=0.000000
_THETA=52.5
_2THETA=105
_KHI=75
_PHI=0.000000
_X=0.000000
_Y=0.000000
_Z=0.000000
_DIVERGENCE=3.000000
_ANTISCATTER=3.000000
_DETECTOR=1
; S.C.
_HV=687
_GAIN=80
_LLD=0.690000
_ULD=1.866000
_DETECTORSLIT='unkn'
_AUX1=0.000000
_AUX2=0.000000
_AUX3=0.000000
_TIMESTARTED=13032
_TEMP_RATE=0.000000
_TEMP_DELAY=0.000000
_KV=35
_MA=40
_RANGE_WL=1.788970
_3DPLANE=0
_2THETACOUNTS
   0.0000      6640
; (Data for Range number 153)
_DRIVE='PHI'
_STEPTIME=20
_STEPSIZE=5.000000
_STEPMODE='S'
_START=0.000000
_THETA=52.5
_2THETA=105
_KHI=80
_PHI=0.000000
_X=0.000000
_Y=0.000000
_Z=0.000000
_DIVERGENCE=3.000000
_ANTISCATTER=3.000000
_DETECTOR=1
; S.C.
_HV=687
_GAIN=80
_LLD=0.690000
_ULD=1.866000
_DETECTORSLIT='unkn'
_AUX1=0.000000
_AUX2=0.000000
_AUX3=0.000000
_TIMESTARTED=13056
_TEMP_RATE=0.000000
_TEMP_DELAY=0.000000
_KV=35
_MA=40
_RANGE_WL=1.788970
_3DPLANE=0
_2THETACOUNTS
   0.0000      6012