File: dat/ass-stand_dfc_new.UXD
; C:\DIFFDAT1\GIFT\MML\youngung\standard_Aust_ss\ass-stnd_R.raw(Diffrac Plus V1.01 file) converted by XCH V1.0
_FILEVERSION=2
_SITE='Korea'
_USER='Admin'
_SAMPLE_CHANGER_CODE=0
_ATTACHMENTS_CODE=0
_GONIOMETER_RADIUS=300
_FIXED_DIVSLIT=1.000000
_FIXED_SAMPLESLIT=0.000000
_FIXED_DETSLIT=0.100000
_MONOCHROMATOR=0
; None
_THIN_FILM='N'
_BETA_FILTER='Y'
_FIXED_ANTISLIT=0.600000
_ANALYZER_CODE=0
; None
_DATEMEASURED='20-Jan-2011 02:25:01'
_WL_UNIT='A'
_WL1=1.788970
_WL2=1.792850
_WL3=1.620790
_WLRATIO=0.500000
_ANODE='Co'
; (Data for Range number 1)
_DRIVE='PHI'
_STEPTIME=2.000000
_STEPSIZE=5.000000
_STEPMODE='C'
_START=0.000000
_THETA=25.515
_2THETA=51.03
_KHI=0.000000
_PHI=0.000000
_X=0.000000
_Y=0.000000
_Z=0.000000
_DIVERGENCE=3.000000
_ANTISCATTER=3.000000
_DETECTOR=1
; S.C.
_HV=687
_GAIN=80
_LLD=0.690000
_ULD=1.866000
_DETECTORSLIT='unkn'
_AUX1=0.000000
_AUX2=0.000000
_AUX3=0.000000
_TIMESTARTED=10
_TEMP_RATE=0.000000
_TEMP_DELAY=0.000000
_KV=35
_MA=40
_RANGE_WL=1.788970
_3DPLANE=0
_2THETACOUNTS
   0.0000      2445
   5.0000      2615
  10.0000      2602
  15.0000      2667
  20.0000      2567
  25.0000      2497
  30.0000      2581
  35.0000      2536
  40.0000      2506
  45.0000      2480
  50.0000      2578
  55.0000      2678
  60.0000      2702
  65.0000      2698
  70.0000      2667
  75.0000      2737
  80.0000      2785
  85.0000      2902
  90.0000      2973
  95.0000      2890
 100.0000      2684
 105.0000      2913
 110.0000      2732
 115.0000      2652
 120.0000      2618
 125.0000      2561
 130.0000      2460
 135.0000      2506
 140.0000      2514
 145.0000      2719
 150.0000      2727
 155.0000      2683
 160.0000      2471
 165.0000      2408
 170.0000      2274
 175.0000      2493
 180.0000      2569
 185.0000      2708
 190.0000      2853
 195.0000      2900
 200.0000      2787
 205.0000      2744
 210.0000      2732
 215.0000      2606
 220.0000      2699
 225.0000      2871
 230.0000      2886
 235.0000      3069
 240.0000      2986
 245.0000      3022
 250.0000      3103
 255.0000      3337
 260.0000      3474
 265.0000      3532
 270.0000      3347
 275.0000      3312
 280.0000      3206
 285.0000      3210
 290.0000      3126
 295.0000      2968
 300.0000      2781
 305.0000      2751
 310.0000      2834
 315.0000      2655
 320.0000      2780
 325.0000      2920
 330.0000      2734
 335.0000      2742
 340.0000      2820
 345.0000      2574
 350.0000      2649
 355.0000      2551
; (Data for Range number 2)
_DRIVE='PHI'
_STEPTIME=2.000000
_STEPSIZE=5.000000
_STEPMODE='C'
_START=0.000000
_THETA=25.515
_2THETA=51.03
_KHI=5.000000
_PHI=0.000000
_X=0.000000
_Y=0.000000
_Z=0.000000
_DIVERGENCE=3.000000
_ANTISCATTER=3.000000
_DETECTOR=1
; S.C.
_HV=687
_GAIN=80
_LLD=0.690000
_ULD=1.866000
_DETECTORSLIT='unkn'
_AUX1=0.000000
_AUX2=0.000000
_AUX3=0.000000
_TIMESTARTED=215
_TEMP_RATE=0.000000
_TEMP_DELAY=0.000000
_KV=35
_MA=40
_RANGE_WL=1.788970
_3DPLANE=0
_2THETACOUNTS
   0.0000      2342
   5.0000      2184
  10.0000      2306
  15.0000      2495
  20.0000      2569
  25.0000      2725
  30.0000      2369
  35.0000      2374
  40.0000      2462
  45.0000      2561
  50.0000      2644
  55.0000      2563
  60.0000      2581
  65.0000      2362
  70.0000      2426
  75.0000      2579
  80.0000      2431
  85.0000      2492
  90.0000      2591
  95.0000      2673
 100.0000      2330
 105.0000      2289
 110.0000      2241
 115.0000      2085
 120.0000      2072
 125.0000      2185
 130.0000      2206
 135.0000      2287
 140.0000      2203
 145.0000      2313
 150.0000      2355
 155.0000      2579
 160.0000      2681
 165.0000      2546
 170.0000      2641
 175.0000      2549
 180.0000      2550
 185.0000      2390
 190.0000      2532
 195.0000      2342
 200.0000      2537
 205.0000      2679
 210.0000      2291
 215.0000      2268
 220.0000      2353
 225.0000      2519
 230.0000      2371
 235.0000      2546
 240.0000      2322
 245.0000      2574
 250.0000      2447
 255.0000      2543
 260.0000      2357
 265.0000      2174
 270.0000      2631
 275.0000      2484
 280.0000      2446
 285.0000      2540
 290.0000      2877
 295.0000      2775
 300.0000      2471
 305.0000      2396
 310.0000      2441
 315.0000      2501
 320.0000      2360
 325.0000      2436
 330.0000      2347
 335.0000      2214
 340.0000      2049
 345.0000      2440
 350.0000      2062
 355.0000      2300
; (Data for Range number 3)
_DRIVE='PHI'
_STEPTIME=2.000000
_STEPSIZE=5.000000
_STEPMODE='C'
_START=0.000000
_THETA=25.515
_2THETA=51.03
_KHI=10
_PHI=0.000000
_X=0.000000
_Y=0.000000
_Z=0.000000
_DIVERGENCE=3.000000
_ANTISCATTER=3.000000
_DETECTOR=1
; S.C.
_HV=687
_GAIN=80
_LLD=0.690000
_ULD=1.866000
_DETECTORSLIT='unkn'
_AUX1=0.000000
_AUX2=0.000000
_AUX3=0.000000
_TIMESTARTED=420
_TEMP_RATE=0.000000
_TEMP_DELAY=0.000000
_KV=35
_MA=40
_RANGE_WL=1.788970
_3DPLANE=0
_2THETACOUNTS
   0.0000      2633
   5.0000      2718
  10.0000      2708
  15.0000      2267
  20.0000      2356
  25.0000      2193
  30.0000      2149
  35.0000      2476
  40.0000      2785
  45.0000      2835
  50.0000      3110
  55.0000      2523
  60.0000      2393
  65.0000      2485
  70.0000      2270
  75.0000      2294
  80.0000      2158
  85.0000      2487
  90.0000      2739
  95.0000      2421
 100.0000      2527
 105.0000      2514
 110.0000      2463
 115.0000      2393
 120.0000      2697
 125.0000      2390
 130.0000      2317
 135.0000      2341
 140.0000      2334
 145.0000      2507
 150.0000      2342
 155.0000      2410
 160.0000      2458
 165.0000      2559
 170.0000      2429
 175.0000      2402
 180.0000      2507
 185.0000      2354
 190.0000      2499
 195.0000      2372
 200.0000      2495
 205.0000      2560
 210.0000      2346
 215.0000      2545
 220.0000      2172
 225.0000      2551
 230.0000      2517
 235.0000      2432
 240.0000      2444
 245.0000      2593
 250.0000      2687
 255.0000      2619
 260.0000      2830
 265.0000      2492
 270.0000      2347
 275.0000      2465
 280.0000      2206
 285.0000      2492
 290.0000      2425
 295.0000      2277
 300.0000      2460
 305.0000      2409
 310.0000      2698
 315.0000      2385
 320.0000      2416
 325.0000      2337
 330.0000      2384
 335.0000      2334
 340.0000      2308
 345.0000      2581
 350.0000      2898
 355.0000      2138
; (Data for Range number 4)
_DRIVE='PHI'
_STEPTIME=2.000000
_STEPSIZE=5.000000
_STEPMODE='C'
_START=0.000000
_THETA=25.515
_2THETA=51.03
_KHI=15
_PHI=0.000000
_X=0.000000
_Y=0.000000
_Z=0.000000
_DIVERGENCE=3.000000
_ANTISCATTER=3.000000
_DETECTOR=1
; S.C.
_HV=687
_GAIN=80
_LLD=0.690000
_ULD=1.866000
_DETECTORSLIT='unkn'
_AUX1=0.000000
_AUX2=0.000000
_AUX3=0.000000
_TIMESTARTED=625
_TEMP_RATE=0.000000
_TEMP_DELAY=0.000000
_KV=35
_MA=40
_RANGE_WL=1.788970
_3DPLANE=0
_2THETACOUNTS
   0.0000      2459
   5.0000      2651
  10.0000      2451
  15.0000      2443
  20.0000      2429
  25.0000      2398
  30.0000      2272
  35.0000      2418
  40.0000      2402
  45.0000      2202
  50.0000      2379
  55.0000      2298
  60.0000      2230
  65.0000      2406
  70.0000      2706
  75.0000      2477
  80.0000      2469
  85.0000      2229
  90.0000      2759
  95.0000      2445
 100.0000      2485
 105.0000      2381
 110.0000      2456
 115.0000      2337
 120.0000      2236
 125.0000      2314
 130.0000      2174
 135.0000      2505
 140.0000      2210
 145.0000      2558
 150.0000      2253
 155.0000      2318
 160.0000      2738
 165.0000      2478
 170.0000      2471
 175.0000      2488
 180.0000      2578
 185.0000      2412
 190.0000      2465
 195.0000      2264
 200.0000      2368
 205.0000      2609
 210.0000      2439
 215.0000      2247
 220.0000      2239
 225.0000      2407
 230.0000      2364
 235.0000      2473
 240.0000      2272
 245.0000      2378
 250.0000      2433
 255.0000      2324
 260.0000      2428
 265.0000      2550
 270.0000      2392
 275.0000      2517
 280.0000      2617
 285.0000      2404
 290.0000      2472
 295.0000      2417
 300.0000      2637
 305.0000      2378
 310.0000      2518
 315.0000      2468
 320.0000      2322
 325.0000      2528
 330.0000      2578
 335.0000      2408
 340.0000      2536
 345.0000      2381
 350.0000      2515
 355.0000      2669
; (Data for Range number 5)
_DRIVE='PHI'
_STEPTIME=2.000000
_STEPSIZE=5.000000
_STEPMODE='C'
_START=0.000000
_THETA=25.515
_2THETA=51.03
_KHI=20
_PHI=0.000000
_X=0.000000
_Y=0.000000
_Z=0.000000
_DIVERGENCE=3.000000
_ANTISCATTER=3.000000
_DETECTOR=1
; S.C.
_HV=687
_GAIN=80
_LLD=0.690000
_ULD=1.866000
_DETECTORSLIT='unkn'
_AUX1=0.000000
_AUX2=0.000000
_AUX3=0.000000
_TIMESTARTED=830
_TEMP_RATE=0.000000
_TEMP_DELAY=0.000000
_KV=35
_MA=40
_RANGE_WL=1.788970
_3DPLANE=0
_2THETACOUNTS
   0.0000      2400
   5.0000      2541
  10.0000      2699
  15.0000      2370
  20.0000      2486
  25.0000      2332
  30.0000      2266
  35.0000      2262
  40.0000      2270
  45.0000      2143
  50.0000      2383
  55.0000      2084
  60.0000      2258
  65.0000      2284
  70.0000      2540
  75.0000      2417
  80.0000      2579
  85.0000      2374
  90.0000      2514
  95.0000      2541
 100.0000      2516
 105.0000      2220
 110.0000      2198
 115.0000      2469
 120.0000      2373
 125.0000      2395
 130.0000      2239
 135.0000      2259
 140.0000      2288
 145.0000      2369
 150.0000      2137
 155.0000      2298
 160.0000      2499
 165.0000      2330
 170.0000      2247
 175.0000      2377
 180.0000      2272
 185.0000      2309
 190.0000      2416
 195.0000      2434
 200.0000      2277
 205.0000      2393
 210.0000      2589
 215.0000      2402
 220.0000      2466
 225.0000      2603
 230.0000      2515
 235.0000      2471
 240.0000      2381
 245.0000      2426
 250.0000      2573
 255.0000      2381
 260.0000      2339
 265.0000      2485
 270.0000      2349
 275.0000      2315
 280.0000      2248
 285.0000      2293
 290.0000      2364
 295.0000      2376
 300.0000      2463
 305.0000      2511
 310.0000      2614
 315.0000      2342
 320.0000      2532
 325.0000      2483
 330.0000      2346
 335.0000      2423
 340.0000      2485
 345.0000      2419
 350.0000      2400
 355.0000      2426
; (Data for Range number 6)
_DRIVE='PHI'
_STEPTIME=2.000000
_STEPSIZE=5.000000
_STEPMODE='C'
_START=0.000000
_THETA=25.515
_2THETA=51.03
_KHI=25
_PHI=0.000000
_X=0.000000
_Y=0.000000
_Z=0.000000
_DIVERGENCE=3.000000
_ANTISCATTER=3.000000
_DETECTOR=1
; S.C.
_HV=687
_GAIN=80
_LLD=0.690000
_ULD=1.866000
_DETECTORSLIT='unkn'
_AUX1=0.000000
_AUX2=0.000000
_AUX3=0.000000
_TIMESTARTED=1035
_TEMP_RATE=0.000000
_TEMP_DELAY=0.000000
_KV=35
_MA=40
_RANGE_WL=1.788970
_3DPLANE=0
_2THETACOUNTS
   0.0000      2594
   5.0000      2368
  10.0000      2311
  15.0000      2474
  20.0000      2420
  25.0000      2382
  30.0000      2250
  35.0000      2446
  40.0000      2560
  45.0000      2641
  50.0000      2214
  55.0000      2381
  60.0000      2328
  65.0000      2328
  70.0000      2587
  75.0000      2251
  80.0000      2233
  85.0000      2411
  90.0000      2426
  95.0000      2421
 100.0000      2432
 105.0000      2614
 110.0000      2430
 115.0000      2561
 120.0000      2396
 125.0000      2122
 130.0000      2235
 135.0000      2199
 140.0000      2203
 145.0000      2211
 150.0000      2157
 155.0000      2419
 160.0000      2561
 165.0000      2403
 170.0000      2585
 175.0000      2346
 180.0000      2295
 185.0000      2306
 190.0000      2460
 195.0000      2523
 200.0000      2189
 205.0000      2191
 210.0000      2495
 215.0000      2522
 220.0000      2477
 225.0000      2413
 230.0000      2311
 235.0000      2341
 240.0000      2395
 245.0000      2292
 250.0000      2280
 255.0000      2401
 260.0000      2474
 265.0000      2412
 270.0000      2205
 275.0000      2377
 280.0000      2353
 285.0000      2349
 290.0000      2149
 295.0000      2386
 300.0000      2521
 305.0000      2201
 310.0000      2091
 315.0000      2533
 320.0000      2213
 325.0000      2587
 330.0000      2331
 335.0000      2386
 340.0000      2376
 345.0000      2467
 350.0000      2667
 355.0000      2212
; (Data for Range number 7)
_DRIVE='PHI'
_STEPTIME=2.000000
_STEPSIZE=5.000000
_STEPMODE='C'
_START=0.000000
_THETA=25.515
_2THETA=51.03
_KHI=30
_PHI=0.000000
_X=0.000000
_Y=0.000000
_Z=0.000000
_DIVERGENCE=3.000000
_ANTISCATTER=3.000000
_DETECTOR=1
; S.C.
_HV=687
_GAIN=80
_LLD=0.690000
_ULD=1.866000
_DETECTORSLIT='unkn'
_AUX1=0.000000
_AUX2=0.000000
_AUX3=0.000000
_TIMESTARTED=1240
_TEMP_RATE=0.000000
_TEMP_DELAY=0.000000
_KV=35
_MA=40
_RANGE_WL=1.788970
_3DPLANE=0
_2THETACOUNTS
   0.0000      2311
   5.0000      2280
  10.0000      2297
  15.0000      2494
  20.0000      2370
  25.0000      2512
  30.0000      2745
  35.0000      2452
  40.0000      2429
  45.0000      2487
  50.0000      2166
  55.0000      2441
  60.0000      2421
  65.0000      2312
  70.0000      2271
  75.0000      2374
  80.0000      2609
  85.0000      2346
  90.0000      2476
  95.0000      2315
 100.0000      2317
 105.0000      2480
 110.0000      2349
 115.0000      2227
 120.0000      2123
 125.0000      2318
 130.0000      2302
 135.0000      2347
 140.0000      2194
 145.0000      2406
 150.0000      2443
 155.0000      2269
 160.0000      2373
 165.0000      2297
 170.0000      2554
 175.0000      2664
 180.0000      2725
 185.0000      2320
 190.0000      2390
 195.0000      2275
 200.0000      2383
 205.0000      2707
 210.0000      2314
 215.0000      2577
 220.0000      2429
 225.0000      2200
 230.0000      2416
 235.0000      2274
 240.0000      2173
 245.0000      2296
 250.0000      2015
 255.0000      2191
 260.0000      2349
 265.0000      2450
 270.0000      2245
 275.0000      2178
 280.0000      2222
 285.0000      2491
 290.0000      2208
 295.0000      2336
 300.0000      2371
 305.0000      2254
 310.0000      2400
 315.0000      2379
 320.0000      2399
 325.0000      2615
 330.0000      2412
 335.0000      2348
 340.0000      2474
 345.0000      2598
 350.0000      2289
 355.0000      2385
; (Data for Range number 8)
_DRIVE='PHI'
_STEPTIME=2.000000
_STEPSIZE=5.000000
_STEPMODE='C'
_START=0.000000
_THETA=25.515
_2THETA=51.03
_KHI=35
_PHI=0.000000
_X=0.000000
_Y=0.000000
_Z=0.000000
_DIVERGENCE=3.000000
_ANTISCATTER=3.000000
_DETECTOR=1
; S.C.
_HV=687
_GAIN=80
_LLD=0.690000
_ULD=1.866000
_DETECTORSLIT='unkn'
_AUX1=0.000000
_AUX2=0.000000
_AUX3=0.000000
_TIMESTARTED=1445
_TEMP_RATE=0.000000
_TEMP_DELAY=0.000000
_KV=35
_MA=40
_RANGE_WL=1.788970
_3DPLANE=0
_2THETACOUNTS
   0.0000      2451
   5.0000      2374
  10.0000      2493
  15.0000      2388
  20.0000      2552
  25.0000      2305
  30.0000      2299
  35.0000      2365
  40.0000      2534
  45.0000      2238
  50.0000      2366
  55.0000      2427
  60.0000      2309
  65.0000      2322
  70.0000      2531
  75.0000      2523
  80.0000      2248
  85.0000      2287
  90.0000      2428
  95.0000      2156
 100.0000      2404
 105.0000      2420
 110.0000      2293
 115.0000      2453
 120.0000      2284
 125.0000      2143
 130.0000      2366
 135.0000      2384
 140.0000      2347
 145.0000      2337
 150.0000      2382
 155.0000      2120
 160.0000      2318
 165.0000      2387
 170.0000      2195
 175.0000      2242
 180.0000      2472
 185.0000      2460
 190.0000      2396
 195.0000      2458
 200.0000      2272
 205.0000      2491
 210.0000      2323
 215.0000      2425
 220.0000      2279
 225.0000      2525
 230.0000      2474
 235.0000      2261
 240.0000      2244
 245.0000      2466
 250.0000      2325
 255.0000      2349
 260.0000      2858
 265.0000      2674
 270.0000      2498
 275.0000      2455
 280.0000      2358
 285.0000      2316
 290.0000      2183
 295.0000      2148
 300.0000      2389
 305.0000      2478
 310.0000      2462
 315.0000      2465
 320.0000      2596
 325.0000      2508
 330.0000      2436
 335.0000      2365
 340.0000      2296
 345.0000      2450
 350.0000      2304
 355.0000      2241
; (Data for Range number 9)
_DRIVE='PHI'
_STEPTIME=2.000000
_STEPSIZE=5.000000
_STEPMODE='C'
_START=0.000000
_THETA=25.515
_2THETA=51.03
_KHI=40
_PHI=0.000000
_X=0.000000
_Y=0.000000
_Z=0.000000
_DIVERGENCE=3.000000
_ANTISCATTER=3.000000
_DETECTOR=1
; S.C.
_HV=687
_GAIN=80
_LLD=0.690000
_ULD=1.866000
_DETECTORSLIT='unkn'
_AUX1=0.000000
_AUX2=0.000000
_AUX3=0.000000
_TIMESTARTED=1650
_TEMP_RATE=0.000000
_TEMP_DELAY=0.000000
_KV=35
_MA=40
_RANGE_WL=1.788970
_3DPLANE=0
_2THETACOUNTS
   0.0000      2333
   5.0000      2294
  10.0000      2465
  15.0000      2449
  20.0000      2187
  25.0000      2293
  30.0000      2256
  35.0000      2303
  40.0000      2186
  45.0000      2400
  50.0000      2402
  55.0000      2201
  60.0000      2117
  65.0000      2268
  70.0000      2463
  75.0000      2266
  80.0000      2281
  85.0000      2195
  90.0000      2210
  95.0000      2545
 100.0000      2358
 105.0000      2431
 110.0000      2224
 115.0000      2263
 120.0000      2365
 125.0000      2345
 130.0000      2232
 135.0000      2150
 140.0000      2229
 145.0000      2194
 150.0000      2237
 155.0000      2154
 160.0000      2187
 165.0000      2474
 170.0000      2245
 175.0000      2153
 180.0000      2498
 185.0000      2370
 190.0000      2322
 195.0000      2159
 200.0000      2414
 205.0000      2525
 210.0000      2286
 215.0000      2441
 220.0000      2385
 225.0000      2333
[...]
_AUX1=0.000000
_AUX2=0.000000
_AUX3=0.000000
_TIMESTARTED=16968
_TEMP_RATE=0.000000
_TEMP_DELAY=0.000000
_KV=35
_MA=40
_RANGE_WL=1.788970
_3DPLANE=0
_2THETACOUNTS
   0.0000      4744
; (Data for Range number 188)
_DRIVE='PHI'
_STEPTIME=20
_STEPSIZE=5.000000
_STEPMODE='S'
_START=0.000000
_THETA=57.5
_2THETA=115
_KHI=0.000000
_PHI=0.000000
_X=0.000000
_Y=0.000000
_Z=0.000000
_DIVERGENCE=3.000000
_ANTISCATTER=3.000000
_DETECTOR=1
; S.C.
_HV=687
_GAIN=80
_LLD=0.690000
_ULD=1.866000
_DETECTORSLIT='unkn'
_AUX1=0.000000
_AUX2=0.000000
_AUX3=0.000000
_TIMESTARTED=17011
_TEMP_RATE=0.000000
_TEMP_DELAY=0.000000
_KV=35
_MA=40
_RANGE_WL=1.788970
_3DPLANE=0
_2THETACOUNTS
   0.0000      5252
; (Data for Range number 189)
_DRIVE='PHI'
_STEPTIME=20
_STEPSIZE=5.000000
_STEPMODE='S'
_START=0.000000
_THETA=57.5
_2THETA=115
_KHI=5.000000
_PHI=0.000000
_X=0.000000
_Y=0.000000
_Z=0.000000
_DIVERGENCE=3.000000
_ANTISCATTER=3.000000
_DETECTOR=1
; S.C.
_HV=687
_GAIN=80
_LLD=0.690000
_ULD=1.866000
_DETECTORSLIT='unkn'
_AUX1=0.000000
_AUX2=0.000000
_AUX3=0.000000
_TIMESTARTED=17035
_TEMP_RATE=0.000000
_TEMP_DELAY=0.000000
_KV=35
_MA=40
_RANGE_WL=1.788970
_3DPLANE=0
_2THETACOUNTS
   0.0000      5324
; (Data for Range number 190)
_DRIVE='PHI'
_STEPTIME=20
_STEPSIZE=5.000000
_STEPMODE='S'
_START=0.000000
_THETA=57.5
_2THETA=115
_KHI=10
_PHI=0.000000
_X=0.000000
_Y=0.000000
_Z=0.000000
_DIVERGENCE=3.000000
_ANTISCATTER=3.000000
_DETECTOR=1
; S.C.
_HV=687
_GAIN=80
_LLD=0.690000
_ULD=1.866000
_DETECTORSLIT='unkn'
_AUX1=0.000000
_AUX2=0.000000
_AUX3=0.000000
_TIMESTARTED=17060
_TEMP_RATE=0.000000
_TEMP_DELAY=0.000000
_KV=35
_MA=40
_RANGE_WL=1.788970
_3DPLANE=0
_2THETACOUNTS
   0.0000      5348
; (Data for Range number 191)
_DRIVE='PHI'
_STEPTIME=20
_STEPSIZE=5.000000
_STEPMODE='S'
_START=0.000000
_THETA=57.5
_2THETA=115
_KHI=15
_PHI=0.000000
_X=0.000000
_Y=0.000000
_Z=0.000000
_DIVERGENCE=3.000000
_ANTISCATTER=3.000000
_DETECTOR=1
; S.C.
_HV=687
_GAIN=80
_LLD=0.690000
_ULD=1.866000
_DETECTORSLIT='unkn'
_AUX1=0.000000
_AUX2=0.000000
_AUX3=0.000000
_TIMESTARTED=17085
_TEMP_RATE=0.000000
_TEMP_DELAY=0.000000
_KV=35
_MA=40
_RANGE_WL=1.788970
_3DPLANE=0
_2THETACOUNTS
   0.0000      5341
; (Data for Range number 192)
_DRIVE='PHI'
_STEPTIME=20
_STEPSIZE=5.000000
_STEPMODE='S'
_START=0.000000
_THETA=57.5
_2THETA=115
_KHI=20
_PHI=0.000000
_X=0.000000
_Y=0.000000
_Z=0.000000
_DIVERGENCE=3.000000
_ANTISCATTER=3.000000
_DETECTOR=1
; S.C.
_HV=687
_GAIN=80
_LLD=0.690000
_ULD=1.866000
_DETECTORSLIT='unkn'
_AUX1=0.000000
_AUX2=0.000000
_AUX3=0.000000
_TIMESTARTED=17110
_TEMP_RATE=0.000000
_TEMP_DELAY=0.000000
_KV=35
_MA=40
_RANGE_WL=1.788970
_3DPLANE=0
_2THETACOUNTS
   0.0000      5452
; (Data for Range number 193)
_DRIVE='PHI'
_STEPTIME=20
_STEPSIZE=5.000000
_STEPMODE='S'
_START=0.000000
_THETA=57.5
_2THETA=115
_KHI=25
_PHI=0.000000
_X=0.000000
_Y=0.000000
_Z=0.000000
_DIVERGENCE=3.000000
_ANTISCATTER=3.000000
_DETECTOR=1
; S.C.
_HV=687
_GAIN=80
_LLD=0.690000
_ULD=1.866000
_DETECTORSLIT='unkn'
_AUX1=0.000000
_AUX2=0.000000
_AUX3=0.000000
_TIMESTARTED=17135
_TEMP_RATE=0.000000
_TEMP_DELAY=0.000000
_KV=35
_MA=40
_RANGE_WL=1.788970
_3DPLANE=0
_2THETACOUNTS
   0.0000      5283
; (Data for Range number 194)
_DRIVE='PHI'
_STEPTIME=20
_STEPSIZE=5.000000
_STEPMODE='S'
_START=0.000000
_THETA=57.5
_2THETA=115
_KHI=30
_PHI=0.000000
_X=0.000000
_Y=0.000000
_Z=0.000000
_DIVERGENCE=3.000000
_ANTISCATTER=3.000000
_DETECTOR=1
; S.C.
_HV=687
_GAIN=80
_LLD=0.690000
_ULD=1.866000
_DETECTORSLIT='unkn'
_AUX1=0.000000
_AUX2=0.000000
_AUX3=0.000000
_TIMESTARTED=17159
_TEMP_RATE=0.000000
_TEMP_DELAY=0.000000
_KV=35
_MA=40
_RANGE_WL=1.788970
_3DPLANE=0
_2THETACOUNTS
   0.0000      5312
; (Data for Range number 195)
_DRIVE='PHI'
_STEPTIME=20
_STEPSIZE=5.000000
_STEPMODE='S'
_START=0.000000
_THETA=57.5
_2THETA=115
_KHI=35
_PHI=0.000000
_X=0.000000
_Y=0.000000
_Z=0.000000
_DIVERGENCE=3.000000
_ANTISCATTER=3.000000
_DETECTOR=1
; S.C.
_HV=687
_GAIN=80
_LLD=0.690000
_ULD=1.866000
_DETECTORSLIT='unkn'
_AUX1=0.000000
_AUX2=0.000000
_AUX3=0.000000
_TIMESTARTED=17184
_TEMP_RATE=0.000000
_TEMP_DELAY=0.000000
_KV=35
_MA=40
_RANGE_WL=1.788970
_3DPLANE=0
_2THETACOUNTS
   0.0000      5313
; (Data for Range number 196)
_DRIVE='PHI'
_STEPTIME=20
_STEPSIZE=5.000000
_STEPMODE='S'
_START=0.000000
_THETA=57.5
_2THETA=115
_KHI=40
_PHI=0.000000
_X=0.000000
_Y=0.000000
_Z=0.000000
_DIVERGENCE=3.000000
_ANTISCATTER=3.000000
_DETECTOR=1
; S.C.
_HV=687
_GAIN=80
_LLD=0.690000
_ULD=1.866000
_DETECTORSLIT='unkn'
_AUX1=0.000000
_AUX2=0.000000
_AUX3=0.000000
_TIMESTARTED=17209
_TEMP_RATE=0.000000
_TEMP_DELAY=0.000000
_KV=35
_MA=40
_RANGE_WL=1.788970
_3DPLANE=0
_2THETACOUNTS
   0.0000      5318
; (Data for Range number 197)
_DRIVE='PHI'
_STEPTIME=20
_STEPSIZE=5.000000
_STEPMODE='S'
_START=0.000000
_THETA=57.5
_2THETA=115
_KHI=45
_PHI=0.000000
_X=0.000000
_Y=0.000000
_Z=0.000000
_DIVERGENCE=3.000000
_ANTISCATTER=3.000000
_DETECTOR=1
; S.C.
_HV=687
_GAIN=80
_LLD=0.690000
_ULD=1.866000
_DETECTORSLIT='unkn'
_AUX1=0.000000
_AUX2=0.000000
_AUX3=0.000000
_TIMESTARTED=17234
_TEMP_RATE=0.000000
_TEMP_DELAY=0.000000
_KV=35
_MA=40
_RANGE_WL=1.788970
_3DPLANE=0
_2THETACOUNTS
   0.0000      5271
; (Data for Range number 198)
_DRIVE='PHI'
_STEPTIME=20
_STEPSIZE=5.000000
_STEPMODE='S'
_START=0.000000
_THETA=57.5
_2THETA=115
_KHI=50
_PHI=0.000000
_X=0.000000
_Y=0.000000
_Z=0.000000
_DIVERGENCE=3.000000
_ANTISCATTER=3.000000
_DETECTOR=1
; S.C.
_HV=687
_GAIN=80
_LLD=0.690000
_ULD=1.866000
_DETECTORSLIT='unkn'
_AUX1=0.000000
_AUX2=0.000000
_AUX3=0.000000
_TIMESTARTED=17259
_TEMP_RATE=0.000000
_TEMP_DELAY=0.000000
_KV=35
_MA=40
_RANGE_WL=1.788970
_3DPLANE=0
_2THETACOUNTS
   0.0000      5255
; (Data for Range number 199)
_DRIVE='PHI'
_STEPTIME=20
_STEPSIZE=5.000000
_STEPMODE='S'
_START=0.000000
_THETA=57.5
_2THETA=115
_KHI=55
_PHI=0.000000
_X=0.000000
_Y=0.000000
_Z=0.000000
_DIVERGENCE=3.000000
_ANTISCATTER=3.000000
_DETECTOR=1
; S.C.
_HV=687
_GAIN=80
_LLD=0.690000
_ULD=1.866000
_DETECTORSLIT='unkn'
_AUX1=0.000000
_AUX2=0.000000
_AUX3=0.000000
_TIMESTARTED=17283
_TEMP_RATE=0.000000
_TEMP_DELAY=0.000000
_KV=35
_MA=40
_RANGE_WL=1.788970
_3DPLANE=0
_2THETACOUNTS
   0.0000      5235
; (Data for Range number 200)
_DRIVE='PHI'
_STEPTIME=20
_STEPSIZE=5.000000
_STEPMODE='S'
_START=0.000000
_THETA=57.5
_2THETA=115
_KHI=60
_PHI=0.000000
_X=0.000000
_Y=0.000000
_Z=0.000000
_DIVERGENCE=3.000000
_ANTISCATTER=3.000000
_DETECTOR=1
; S.C.
_HV=687
_GAIN=80
_LLD=0.690000
_ULD=1.866000
_DETECTORSLIT='unkn'
_AUX1=0.000000
_AUX2=0.000000
_AUX3=0.000000
_TIMESTARTED=17308
_TEMP_RATE=0.000000
_TEMP_DELAY=0.000000
_KV=35
_MA=40
_RANGE_WL=1.788970
_3DPLANE=0
_2THETACOUNTS
   0.0000      5024
; (Data for Range number 201)
_DRIVE='PHI'
_STEPTIME=20
_STEPSIZE=5.000000
_STEPMODE='S'
_START=0.000000
_THETA=57.5
_2THETA=115
_KHI=65
_PHI=0.000000
_X=0.000000
_Y=0.000000
_Z=0.000000
_DIVERGENCE=3.000000
_ANTISCATTER=3.000000
_DETECTOR=1
; S.C.
_HV=687
_GAIN=80
_LLD=0.690000
_ULD=1.866000
_DETECTORSLIT='unkn'
_AUX1=0.000000
_AUX2=0.000000
_AUX3=0.000000
_TIMESTARTED=17333
_TEMP_RATE=0.000000
_TEMP_DELAY=0.000000
_KV=35
_MA=40
_RANGE_WL=1.788970
_3DPLANE=0
_2THETACOUNTS
   0.0000      5067
; (Data for Range number 202)
_DRIVE='PHI'
_STEPTIME=20
_STEPSIZE=5.000000
_STEPMODE='S'
_START=0.000000
_THETA=57.5
_2THETA=115
_KHI=70
_PHI=0.000000
_X=0.000000
_Y=0.000000
_Z=0.000000
_DIVERGENCE=3.000000
_ANTISCATTER=3.000000
_DETECTOR=1
; S.C.
_HV=687
_GAIN=80
_LLD=0.690000
_ULD=1.866000
_DETECTORSLIT='unkn'
_AUX1=0.000000
_AUX2=0.000000
_AUX3=0.000000
_TIMESTARTED=17358
_TEMP_RATE=0.000000
_TEMP_DELAY=0.000000
_KV=35
_MA=40
_RANGE_WL=1.788970
_3DPLANE=0
_2THETACOUNTS
   0.0000      4981
; (Data for Range number 203)
_DRIVE='PHI'
_STEPTIME=20
_STEPSIZE=5.000000
_STEPMODE='S'
_START=0.000000
_THETA=57.5
_2THETA=115
_KHI=75
_PHI=0.000000
_X=0.000000
_Y=0.000000
_Z=0.000000
_DIVERGENCE=3.000000
_ANTISCATTER=3.000000
_DETECTOR=1
; S.C.
_HV=687
_GAIN=80
_LLD=0.690000
_ULD=1.866000
_DETECTORSLIT='unkn'
_AUX1=0.000000
_AUX2=0.000000
_AUX3=0.000000
_TIMESTARTED=17382
_TEMP_RATE=0.000000
_TEMP_DELAY=0.000000
_KV=35
_MA=40
_RANGE_WL=1.788970
_3DPLANE=0
_2THETACOUNTS
   0.0000      5215
; (Data for Range number 204)
_DRIVE='PHI'
_STEPTIME=20
_STEPSIZE=5.000000
_STEPMODE='S'
_START=0.000000
_THETA=57.5
_2THETA=115
_KHI=80
_PHI=0.000000
_X=0.000000
_Y=0.000000
_Z=0.000000
_DIVERGENCE=3.000000
_ANTISCATTER=3.000000
_DETECTOR=1
; S.C.
_HV=687
_GAIN=80
_LLD=0.690000
_ULD=1.866000
_DETECTORSLIT='unkn'
_AUX1=0.000000
_AUX2=0.000000
_AUX3=0.000000
_TIMESTARTED=17407
_TEMP_RATE=0.000000
_TEMP_DELAY=0.000000
_KV=35
_MA=40
_RANGE_WL=1.788970
_3DPLANE=0
_2THETACOUNTS
   0.0000      4902