File: dat/uxd/fss-stand_dfc_new.UXD
; C:\DIFFDAT1\GIFT\MML\youngung\standard_Ferr_ss\fss___alignedagain_R.raw(Diffrac Plus V1.01 file) converted by XCH V1.0
_FILEVERSION=2
_SITE='Korea'
_USER='Admin'
_SAMPLE_CHANGER_CODE=0
_ATTACHMENTS_CODE=0
_GONIOMETER_RADIUS=300
_FIXED_DIVSLIT=1.000000
_FIXED_SAMPLESLIT=0.000000
_FIXED_DETSLIT=0.100000
_MONOCHROMATOR=0
; None
_THIN_FILM='N'
_BETA_FILTER='Y'
_FIXED_ANTISLIT=0.600000
_ANALYZER_CODE=0
; None
_DATEMEASURED='20-Jan-2011 06:03:08'
_WL_UNIT='A'
_WL1=1.788970
_WL2=1.792850
_WL3=1.620790
_WLRATIO=0.500000
_ANODE='Co'
; (Data for Range number 1)
_DRIVE='PHI'
_STEPTIME=2.000000
_STEPSIZE=5.000000
_STEPMODE='C'
_START=0.000000
_THETA=26.1155
_2THETA=52.231
_KHI=0.000000
_PHI=0.000000
_X=50
_Y=-25
_Z=0.000000
_DIVERGENCE=3.000000
_ANTISCATTER=3.000000
_DETECTOR=1
; S.C.
_HV=687
_GAIN=80
_LLD=0.690000
_ULD=1.866000
_DETECTORSLIT='unkn'
_AUX1=0.000000
_AUX2=0.000000
_AUX3=0.000000
_TIMESTARTED=25
_TEMP_RATE=0.000000
_TEMP_DELAY=0.000000
_KV=35
_MA=40
_RANGE_WL=1.788970
_3DPLANE=0
_2THETACOUNTS
   0.0000      2644
   5.0000      2631
  10.0000      2726
  15.0000      2740
  20.0000      2689
  25.0000      2752
  30.0000      2806
  35.0000      2791
  40.0000      2789
  45.0000      3056
  50.0000      3089
  55.0000      2734
  60.0000      2596
  65.0000      2569
  70.0000      2569
  75.0000      2708
  80.0000      2611
  85.0000      2529
  90.0000      2429
  95.0000      2298
 100.0000      2339
 105.0000      2463
 110.0000      2512
 115.0000      2349
 120.0000      2301
 125.0000      2182
 130.0000      2100
 135.0000      2204
 140.0000      2352
 145.0000      2429
 150.0000      2474
 155.0000      2523
 160.0000      2581
 165.0000      2569
 170.0000      2575
 175.0000      2502
 180.0000      2729
 185.0000      2716
 190.0000      2733
 195.0000      2886
 200.0000      2911
 205.0000      3108
 210.0000      3224
 215.0000      3182
 220.0000      2811
 225.0000      2593
 230.0000      2754
 235.0000      2453
 240.0000      2451
 245.0000      2473
 250.0000      2474
 255.0000      2391
 260.0000      2673
 265.0000      2630
 270.0000      2667
 275.0000      2760
 280.0000      3011
 285.0000      3003
 290.0000      3005
 295.0000      2752
 300.0000      2591
 305.0000      2346
 310.0000      2269
 315.0000      2354
 320.0000      2576
 325.0000      2754
 330.0000      2667
 335.0000      2620
 340.0000      2701
 345.0000      2846
 350.0000      2781
 355.0000      2582
; (Data for Range number 2)
_DRIVE='PHI'
_STEPTIME=2.000000
_STEPSIZE=5.000000
_STEPMODE='C'
_START=0.000000
_THETA=26.1155
_2THETA=52.231
_KHI=5.000000
_PHI=0.000000
_X=50
_Y=-25
_Z=0.000000
_DIVERGENCE=3.000000
_ANTISCATTER=3.000000
_DETECTOR=1
; S.C.
_HV=687
_GAIN=80
_LLD=0.690000
_ULD=1.866000
_DETECTORSLIT='unkn'
_AUX1=0.000000
_AUX2=0.000000
_AUX3=0.000000
_TIMESTARTED=230
_TEMP_RATE=0.000000
_TEMP_DELAY=0.000000
_KV=35
_MA=40
_RANGE_WL=1.788970
_3DPLANE=0
_2THETACOUNTS
   0.0000      2631
   5.0000      2360
  10.0000      2790
  15.0000      3055
  20.0000      2846
  25.0000      2666
  30.0000      2606
  35.0000      2542
  40.0000      2582
  45.0000      2479
  50.0000      2162
  55.0000      2637
  60.0000      2766
  65.0000      2900
  70.0000      2660
  75.0000      2834
  80.0000      2799
  85.0000      2617
  90.0000      2377
  95.0000      2804
 100.0000      2969
 105.0000      2916
 110.0000      2843
 115.0000      3008
 120.0000      2473
 125.0000      2326
 130.0000      2448
 135.0000      2225
 140.0000      2284
 145.0000      2498
 150.0000      2518
 155.0000      2394
 160.0000      2492
 165.0000      2696
 170.0000      2802
 175.0000      2750
 180.0000      2416
 185.0000      2934
 190.0000      3025
 195.0000      2735
 200.0000      2668
 205.0000      2701
 210.0000      2930
 215.0000      2706
 220.0000      2593
 225.0000      2702
 230.0000      2830
 235.0000      2644
 240.0000      2503
 245.0000      2503
 250.0000      2302
 255.0000      3026
 260.0000      3165
 265.0000      3034
 270.0000      2535
 275.0000      2470
 280.0000      2943
 285.0000      3179
 290.0000      3176
 295.0000      3173
 300.0000      3025
 305.0000      2821
 310.0000      3075
 315.0000      2497
 320.0000      2559
 325.0000      3022
 330.0000      2839
 335.0000      3010
 340.0000      2798
 345.0000      2484
 350.0000      2469
 355.0000      2927
; (Data for Range number 3)
_DRIVE='PHI'
_STEPTIME=2.000000
_STEPSIZE=5.000000
_STEPMODE='C'
_START=0.000000
_THETA=26.1155
_2THETA=52.231
_KHI=10
_PHI=0.000000
_X=50
_Y=-25
_Z=0.000000
_DIVERGENCE=3.000000
_ANTISCATTER=3.000000
_DETECTOR=1
; S.C.
_HV=687
_GAIN=80
_LLD=0.690000
_ULD=1.866000
_DETECTORSLIT='unkn'
_AUX1=0.000000
_AUX2=0.000000
_AUX3=0.000000
_TIMESTARTED=435
_TEMP_RATE=0.000000
_TEMP_DELAY=0.000000
_KV=35
_MA=40
_RANGE_WL=1.788970
_3DPLANE=0
_2THETACOUNTS
   0.0000      2424
   5.0000      2295
  10.0000      2283
  15.0000      2832
  20.0000      2755
  25.0000      2563
  30.0000      2628
  35.0000      2682
  40.0000      2456
  45.0000      2237
  50.0000      2375
  55.0000      2733
  60.0000      2921
  65.0000      3066
  70.0000      2819
  75.0000      2452
  80.0000      2783
  85.0000      2517
  90.0000      2595
  95.0000      2476
 100.0000      2531
 105.0000      2589
 110.0000      2573
 115.0000      3144
 120.0000      2704
 125.0000      2301
 130.0000      2560
 135.0000      2722
 140.0000      2606
 145.0000      2744
 150.0000      2840
 155.0000      2610
 160.0000      2746
 165.0000      2387
 170.0000      2457
 175.0000      2526
 180.0000      2707
 185.0000      2592
 190.0000      2581
 195.0000      2981
 200.0000      2863
 205.0000      2305
 210.0000      2290
 215.0000      2191
 220.0000      2639
 225.0000      2910
 230.0000      3466
 235.0000      3141
 240.0000      2721
 245.0000      2654
 250.0000      2571
 255.0000      2838
 260.0000      2871
 265.0000      2816
 270.0000      2957
 275.0000      2570
 280.0000      2784
 285.0000      2771
 290.0000      2905
 295.0000      2542
 300.0000      2743
 305.0000      2419
 310.0000      2485
 315.0000      3755
 320.0000      2787
 325.0000      2738
 330.0000      2769
 335.0000      2649
 340.0000      2525
 345.0000      2568
 350.0000      2427
 355.0000      2588
; (Data for Range number 4)
_DRIVE='PHI'
_STEPTIME=2.000000
_STEPSIZE=5.000000
_STEPMODE='C'
_START=0.000000
_THETA=26.1155
_2THETA=52.231
_KHI=15
_PHI=0.000000
_X=50
_Y=-25
_Z=0.000000
_DIVERGENCE=3.000000
_ANTISCATTER=3.000000
_DETECTOR=1
; S.C.
_HV=687
_GAIN=80
_LLD=0.690000
_ULD=1.866000
_DETECTORSLIT='unkn'
_AUX1=0.000000
_AUX2=0.000000
_AUX3=0.000000
_TIMESTARTED=640
_TEMP_RATE=0.000000
_TEMP_DELAY=0.000000
_KV=35
_MA=40
_RANGE_WL=1.788970
_3DPLANE=0
_2THETACOUNTS
   0.0000      2609
   5.0000      2731
  10.0000      2735
  15.0000      2760
  20.0000      2828
  25.0000      2851
  30.0000      2782
  35.0000      3079
  40.0000      2596
  45.0000      2300
  50.0000      2783
  55.0000      2741
  60.0000      2501
  65.0000      2744
  70.0000      2961
  75.0000      2743
  80.0000      2344
  85.0000      2511
  90.0000      2491
  95.0000      2506
 100.0000      2376
 105.0000      2619
 110.0000      2757
 115.0000      2966
 120.0000      2754
 125.0000      2475
 130.0000      2632
 135.0000      2799
 140.0000      2791
 145.0000      2895
 150.0000      2535
 155.0000      2519
 160.0000      2726
 165.0000      2815
 170.0000      2683
 175.0000      2920
 180.0000      2406
 185.0000      2534
 190.0000      2399
 195.0000      2692
 200.0000      2543
 205.0000      3142
 210.0000      2822
 215.0000      2559
 220.0000      2895
 225.0000      2916
 230.0000      2875
 235.0000      2670
 240.0000      3036
 245.0000      2804
 250.0000      2988
 255.0000      2851
 260.0000      2677
 265.0000      2819
 270.0000      2528
 275.0000      2780
 280.0000      2836
 285.0000      2673
 290.0000      2339
 295.0000      2528
 300.0000      2565
 305.0000      2649
 310.0000      2816
 315.0000      2704
 320.0000      3160
 325.0000      2792
 330.0000      2682
 335.0000      2367
 340.0000      2615
 345.0000      2635
 350.0000      2493
 355.0000      2887
; (Data for Range number 5)
_DRIVE='PHI'
_STEPTIME=2.000000
_STEPSIZE=5.000000
_STEPMODE='C'
_START=0.000000
_THETA=26.1155
_2THETA=52.231
_KHI=20
_PHI=0.000000
_X=50
_Y=-25
_Z=0.000000
_DIVERGENCE=3.000000
_ANTISCATTER=3.000000
_DETECTOR=1
; S.C.
_HV=687
_GAIN=80
_LLD=0.690000
_ULD=1.866000
_DETECTORSLIT='unkn'
_AUX1=0.000000
_AUX2=0.000000
_AUX3=0.000000
_TIMESTARTED=845
_TEMP_RATE=0.000000
_TEMP_DELAY=0.000000
_KV=35
_MA=40
_RANGE_WL=1.788970
_3DPLANE=0
_2THETACOUNTS
   0.0000      2632
   5.0000      2855
  10.0000      2574
  15.0000      2521
  20.0000      2652
  25.0000      2643
  30.0000      2528
  35.0000      2553
  40.0000      2681
  45.0000      2506
  50.0000      2618
  55.0000      2929
  60.0000      2541
  65.0000      2912
  70.0000      2685
  75.0000      2552
  80.0000      2796
  85.0000      2641
  90.0000      2729
  95.0000      2953
 100.0000      2801
 105.0000      2745
 110.0000      2576
 115.0000      2510
 120.0000      2585
 125.0000      2496
 130.0000      2697
 135.0000      2688
 140.0000      2441
 145.0000      2645
 150.0000      2819
 155.0000      3092
 160.0000      2774
 165.0000      2866
 170.0000      2745
 175.0000      2709
 180.0000      2612
 185.0000      2741
 190.0000      2648
 195.0000      2711
 200.0000      2958
 205.0000      2825
 210.0000      2781
 215.0000      2688
 220.0000      2609
 225.0000      2614
 230.0000      2751
 235.0000      2534
 240.0000      2533
 245.0000      2780
 250.0000      2883
 255.0000      2748
 260.0000      2670
 265.0000      2773
 270.0000      2750
 275.0000      2765
 280.0000      3068
 285.0000      2881
 290.0000      3027
 295.0000      2887
 300.0000      2882
 305.0000      3001
 310.0000      2459
 315.0000      2824
 320.0000      2633
 325.0000      2531
 330.0000      2557
 335.0000      2410
 340.0000      2543
 345.0000      2473
 350.0000      2456
 355.0000      2317
; (Data for Range number 6)
_DRIVE='PHI'
_STEPTIME=2.000000
_STEPSIZE=5.000000
_STEPMODE='C'
_START=0.000000
_THETA=26.1155
_2THETA=52.231
_KHI=25
_PHI=0.000000
_X=50
_Y=-25
_Z=0.000000
_DIVERGENCE=3.000000
_ANTISCATTER=3.000000
_DETECTOR=1
; S.C.
_HV=687
_GAIN=80
_LLD=0.690000
_ULD=1.866000
_DETECTORSLIT='unkn'
_AUX1=0.000000
_AUX2=0.000000
_AUX3=0.000000
_TIMESTARTED=1050
_TEMP_RATE=0.000000
_TEMP_DELAY=0.000000
_KV=35
_MA=40
_RANGE_WL=1.788970
_3DPLANE=0
_2THETACOUNTS
   0.0000      2391
   5.0000      2551
  10.0000      2638
  15.0000      2552
  20.0000      2741
  25.0000      2933
  30.0000      2751
  35.0000      2731
  40.0000      2990
  45.0000      2510
  50.0000      2537
  55.0000      2728
  60.0000      2756
  65.0000      2894
  70.0000      2646
  75.0000      2585
  80.0000      3054
  85.0000      2952
  90.0000      2740
  95.0000      2957
 100.0000      2673
 105.0000      2592
 110.0000      2753
 115.0000      2679
 120.0000      2585
 125.0000      2591
 130.0000      2688
 135.0000      2604
 140.0000      2544
 145.0000      2784
 150.0000      2504
 155.0000      2783
 160.0000      2808
 165.0000      2635
 170.0000      2566
 175.0000      2577
 180.0000      2748
 185.0000      2670
 190.0000      2840
 195.0000      2746
 200.0000      2932
 205.0000      2509
 210.0000      2567
 215.0000      2895
 220.0000      2727
 225.0000      2626
 230.0000      2628
 235.0000      2725
 240.0000      2744
 245.0000      2632
 250.0000      2802
 255.0000      2586
 260.0000      2800
 265.0000      2784
 270.0000      2918
 275.0000      2663
 280.0000      2995
 285.0000      2954
 290.0000      2367
 295.0000      2673
 300.0000      2488
 305.0000      2707
 310.0000      2422
 315.0000      2671
 320.0000      2557
 325.0000      2385
 330.0000      2744
 335.0000      2629
 340.0000      2656
 345.0000      2961
 350.0000      2575
 355.0000      2533
; (Data for Range number 7)
_DRIVE='PHI'
_STEPTIME=2.000000
_STEPSIZE=5.000000
_STEPMODE='C'
_START=0.000000
_THETA=26.1155
_2THETA=52.231
_KHI=30
_PHI=0.000000
_X=50
_Y=-25
_Z=0.000000
_DIVERGENCE=3.000000
_ANTISCATTER=3.000000
_DETECTOR=1
; S.C.
_HV=687
_GAIN=80
_LLD=0.690000
_ULD=1.866000
_DETECTORSLIT='unkn'
_AUX1=0.000000
_AUX2=0.000000
_AUX3=0.000000
_TIMESTARTED=1255
_TEMP_RATE=0.000000
_TEMP_DELAY=0.000000
_KV=35
_MA=40
_RANGE_WL=1.788970
_3DPLANE=0
_2THETACOUNTS
   0.0000      2452
   5.0000      2490
  10.0000      2597
  15.0000      2738
  20.0000      2543
  25.0000      2599
  30.0000      2485
  35.0000      2479
  40.0000      2528
  45.0000      2619
  50.0000      2547
  55.0000      2711
  60.0000      2752
  65.0000      2585
  70.0000      2468
  75.0000      2685
  80.0000      2391
  85.0000      2418
  90.0000      2741
  95.0000      2809
 100.0000      2698
 105.0000      2527
 110.0000      2624
 115.0000      2660
 120.0000      2735
 125.0000      2962
 130.0000      2576
 135.0000      2947
 140.0000      2791
 145.0000      2739
 150.0000      2830
 155.0000      2945
 160.0000      2739
 165.0000      2520
 170.0000      2654
 175.0000      2488
 180.0000      2850
 185.0000      2655
 190.0000      2690
 195.0000      2738
 200.0000      2630
 205.0000      2866
 210.0000      2572
 215.0000      2766
 220.0000      2682
 225.0000      2630
 230.0000      2593
 235.0000      2884
 240.0000      2746
 245.0000      2523
 250.0000      2614
 255.0000      2648
 260.0000      2696
 265.0000      2818
 270.0000      2893
 275.0000      2740
 280.0000      2747
 285.0000      2876
 290.0000      2889
 295.0000      2736
 300.0000      2911
 305.0000      2595
 310.0000      2629
 315.0000      2754
 320.0000      2815
 325.0000      2767
 330.0000      2454
 335.0000      2655
 340.0000      2676
 345.0000      2521
 350.0000      2419
 355.0000      2664
; (Data for Range number 8)
_DRIVE='PHI'
_STEPTIME=2.000000
_STEPSIZE=5.000000
_STEPMODE='C'
_START=0.000000
_THETA=26.1155
_2THETA=52.231
_KHI=35
_PHI=0.000000
_X=50
_Y=-25
_Z=0.000000
_DIVERGENCE=3.000000
_ANTISCATTER=3.000000
_DETECTOR=1
; S.C.
_HV=687
_GAIN=80
_LLD=0.690000
_ULD=1.866000
_DETECTORSLIT='unkn'
_AUX1=0.000000
_AUX2=0.000000
_AUX3=0.000000
_TIMESTARTED=1460
_TEMP_RATE=0.000000
_TEMP_DELAY=0.000000
_KV=35
_MA=40
_RANGE_WL=1.788970
_3DPLANE=0
_2THETACOUNTS
   0.0000      2625
   5.0000      2441
  10.0000      2859
  15.0000      2748
  20.0000      2645
  25.0000      2831
  30.0000      2778
  35.0000      2830
  40.0000      2608
  45.0000      2746
  50.0000      2753
  55.0000      2728
  60.0000      2574
  65.0000      2520
  70.0000      2531
  75.0000      2738
  80.0000      2753
  85.0000      2750
  90.0000      2799
  95.0000      2771
 100.0000      2541
 105.0000      2519
 110.0000      2607
 115.0000      2553
 120.0000      2709
 125.0000      2548
 130.0000      2719
 135.0000      2658
 140.0000      2765
 145.0000      2701
 150.0000      2780
 155.0000      2917
 160.0000      2629
 165.0000      2717
 170.0000      2795
 175.0000      2806
 180.0000      2594
 185.0000      2625
 190.0000      2869
 195.0000      2568
 200.0000      2962
 205.0000      2751
 210.0000      2862
 215.0000      3094
 220.0000      2906
 225.0000      2500
 230.0000      2649
 235.0000      2685
 240.0000      2828
 245.0000      2392
 250.0000      2743
 255.0000      2986
 260.0000      2892
 265.0000      2885
 270.0000      2726
 275.0000      2931
 280.0000      2670
 285.0000      2672
 290.0000      2828
 295.0000      2659
 300.0000      2989
 305.0000      2598
 310.0000      2716
 315.0000      2683
 320.0000      2728
 325.0000      2555
 330.0000      2902
 335.0000      2627
 340.0000      2665
 345.0000      2586
 350.0000      2587
 355.0000      2518
; (Data for Range number 9)
_DRIVE='PHI'
_STEPTIME=2.000000
_STEPSIZE=5.000000
_STEPMODE='C'
_START=0.000000
_THETA=26.1155
_2THETA=52.231
_KHI=40
_PHI=0.000000
_X=50
_Y=-25
_Z=0.000000
_DIVERGENCE=3.000000
_ANTISCATTER=3.000000
_DETECTOR=1
; S.C.
_HV=687
_GAIN=80
_LLD=0.690000
_ULD=1.866000
_DETECTORSLIT='unkn'
_AUX1=0.000000
_AUX2=0.000000
_AUX3=0.000000
_TIMESTARTED=1665
_TEMP_RATE=0.000000
_TEMP_DELAY=0.000000
_KV=35
_MA=40
_RANGE_WL=1.788970
_3DPLANE=0
_2THETACOUNTS
   0.0000      2700
   5.0000      2686
  10.0000      2599
  15.0000      2391
  20.0000      2665
  25.0000      2659
  30.0000      2713
  35.0000      2525
  40.0000      2682
  45.0000      2855
  50.0000      2867
  55.0000      2514
  60.0000      2850
  65.0000      2314
  70.0000      2663
  75.0000      2621
  80.0000      2701
  85.0000      2849
  90.0000      2905
  95.0000      2759
 100.0000      2624
 105.0000      2496
 110.0000      2463
 115.0000      2474
 120.0000      2612
 125.0000      2697
 130.0000      2842
 135.0000      2543
 140.0000      2804
 145.0000      2830
 150.0000      2705
 155.0000      2704
 160.0000      2523
 165.0000      2525
 170.0000      2668
 175.0000      2711
 180.0000      2582
 185.0000      2780
 190.0000      2680
 195.0000      2611
 200.0000      2698
 205.0000      2826
 210.0000      2586
 215.0000      2686
 220.0000      2713
 225.0000      2883
 230.0000      2565
 235.0000      2598
 240.0000      2861
[...]
_STEPMODE='S'
_START=0.000000
_THETA=47
_2THETA=94
_KHI=80
_PHI=0.000000
_X=50
_Y=-25
_Z=0.000000
_DIVERGENCE=3.000000
_ANTISCATTER=3.000000
_DETECTOR=1
; S.C.
_HV=687
_GAIN=80
_LLD=0.690000
_ULD=1.866000
_DETECTORSLIT='unkn'
_AUX1=0.000000
_AUX2=0.000000
_AUX3=0.000000
_TIMESTARTED=12627
_TEMP_RATE=0.000000
_TEMP_DELAY=0.000000
_KV=35
_MA=40
_RANGE_WL=1.788970
_3DPLANE=0
_2THETACOUNTS
   0.0000      4438
; (Data for Range number 137)
_DRIVE='PHI'
_STEPTIME=20
_STEPSIZE=5.000000
_STEPMODE='S'
_START=0.000000
_THETA=52
_2THETA=104
_KHI=0.000000
_PHI=0.000000
_X=50
_Y=-25
_Z=0.000000
_DIVERGENCE=3.000000
_ANTISCATTER=3.000000
_DETECTOR=1
; S.C.
_HV=687
_GAIN=80
_LLD=0.690000
_ULD=1.866000
_DETECTORSLIT='unkn'
_AUX1=0.000000
_AUX2=0.000000
_AUX3=0.000000
_TIMESTARTED=12670
_TEMP_RATE=0.000000
_TEMP_DELAY=0.000000
_KV=35
_MA=40
_RANGE_WL=1.788970
_3DPLANE=0
_2THETACOUNTS
   0.0000      5242
; (Data for Range number 138)
_DRIVE='PHI'
_STEPTIME=20
_STEPSIZE=5.000000
_STEPMODE='S'
_START=0.000000
_THETA=52
_2THETA=104
_KHI=5.000000
_PHI=0.000000
_X=50
_Y=-25
_Z=0.000000
_DIVERGENCE=3.000000
_ANTISCATTER=3.000000
_DETECTOR=1
; S.C.
_HV=687
_GAIN=80
_LLD=0.690000
_ULD=1.866000
_DETECTORSLIT='unkn'
_AUX1=0.000000
_AUX2=0.000000
_AUX3=0.000000
_TIMESTARTED=12695
_TEMP_RATE=0.000000
_TEMP_DELAY=0.000000
_KV=35
_MA=40
_RANGE_WL=1.788970
_3DPLANE=0
_2THETACOUNTS
   0.0000      5258
; (Data for Range number 139)
_DRIVE='PHI'
_STEPTIME=20
_STEPSIZE=5.000000
_STEPMODE='S'
_START=0.000000
_THETA=52
_2THETA=104
_KHI=10
_PHI=0.000000
_X=50
_Y=-25
_Z=0.000000
_DIVERGENCE=3.000000
_ANTISCATTER=3.000000
_DETECTOR=1
; S.C.
_HV=687
_GAIN=80
_LLD=0.690000
_ULD=1.866000
_DETECTORSLIT='unkn'
_AUX1=0.000000
_AUX2=0.000000
_AUX3=0.000000
_TIMESTARTED=12719
_TEMP_RATE=0.000000
_TEMP_DELAY=0.000000
_KV=35
_MA=40
_RANGE_WL=1.788970
_3DPLANE=0
_2THETACOUNTS
   0.0000      5127
; (Data for Range number 140)
_DRIVE='PHI'
_STEPTIME=20
_STEPSIZE=5.000000
_STEPMODE='S'
_START=0.000000
_THETA=52
_2THETA=104
_KHI=15
_PHI=0.000000
_X=50
_Y=-25
_Z=0.000000
_DIVERGENCE=3.000000
_ANTISCATTER=3.000000
_DETECTOR=1
; S.C.
_HV=687
_GAIN=80
_LLD=0.690000
_ULD=1.866000
_DETECTORSLIT='unkn'
_AUX1=0.000000
_AUX2=0.000000
_AUX3=0.000000
_TIMESTARTED=12744
_TEMP_RATE=0.000000
_TEMP_DELAY=0.000000
_KV=35
_MA=40
_RANGE_WL=1.788970
_3DPLANE=0
_2THETACOUNTS
   0.0000      5183
; (Data for Range number 141)
_DRIVE='PHI'
_STEPTIME=20
_STEPSIZE=5.000000
_STEPMODE='S'
_START=0.000000
_THETA=52
_2THETA=104
_KHI=20
_PHI=0.000000
_X=50
_Y=-25
_Z=0.000000
_DIVERGENCE=3.000000
_ANTISCATTER=3.000000
_DETECTOR=1
; S.C.
_HV=687
_GAIN=80
_LLD=0.690000
_ULD=1.866000
_DETECTORSLIT='unkn'
_AUX1=0.000000
_AUX2=0.000000
_AUX3=0.000000
_TIMESTARTED=12769
_TEMP_RATE=0.000000
_TEMP_DELAY=0.000000
_KV=35
_MA=40
_RANGE_WL=1.788970
_3DPLANE=0
_2THETACOUNTS
   0.0000      5218
; (Data for Range number 142)
_DRIVE='PHI'
_STEPTIME=20
_STEPSIZE=5.000000
_STEPMODE='S'
_START=0.000000
_THETA=52
_2THETA=104
_KHI=25
_PHI=0.000000
_X=50
_Y=-25
_Z=0.000000
_DIVERGENCE=3.000000
_ANTISCATTER=3.000000
_DETECTOR=1
; S.C.
_HV=687
_GAIN=80
_LLD=0.690000
_ULD=1.866000
_DETECTORSLIT='unkn'
_AUX1=0.000000
_AUX2=0.000000
_AUX3=0.000000
_TIMESTARTED=12793
_TEMP_RATE=0.000000
_TEMP_DELAY=0.000000
_KV=35
_MA=40
_RANGE_WL=1.788970
_3DPLANE=0
_2THETACOUNTS
   0.0000      5164
; (Data for Range number 143)
_DRIVE='PHI'
_STEPTIME=20
_STEPSIZE=5.000000
_STEPMODE='S'
_START=0.000000
_THETA=52
_2THETA=104
_KHI=30
_PHI=0.000000
_X=50
_Y=-25
_Z=0.000000
_DIVERGENCE=3.000000
_ANTISCATTER=3.000000
_DETECTOR=1
; S.C.
_HV=687
_GAIN=80
_LLD=0.690000
_ULD=1.866000
_DETECTORSLIT='unkn'
_AUX1=0.000000
_AUX2=0.000000
_AUX3=0.000000
_TIMESTARTED=12818
_TEMP_RATE=0.000000
_TEMP_DELAY=0.000000
_KV=35
_MA=40
_RANGE_WL=1.788970
_3DPLANE=0
_2THETACOUNTS
   0.0000      5355
; (Data for Range number 144)
_DRIVE='PHI'
_STEPTIME=20
_STEPSIZE=5.000000
_STEPMODE='S'
_START=0.000000
_THETA=52
_2THETA=104
_KHI=35
_PHI=0.000000
_X=50
_Y=-25
_Z=0.000000
_DIVERGENCE=3.000000
_ANTISCATTER=3.000000
_DETECTOR=1
; S.C.
_HV=687
_GAIN=80
_LLD=0.690000
_ULD=1.866000
_DETECTORSLIT='unkn'
_AUX1=0.000000
_AUX2=0.000000
_AUX3=0.000000
_TIMESTARTED=12843
_TEMP_RATE=0.000000
_TEMP_DELAY=0.000000
_KV=35
_MA=40
_RANGE_WL=1.788970
_3DPLANE=0
_2THETACOUNTS
   0.0000      5175
; (Data for Range number 145)
_DRIVE='PHI'
_STEPTIME=20
_STEPSIZE=5.000000
_STEPMODE='S'
_START=0.000000
_THETA=52
_2THETA=104
_KHI=40
_PHI=0.000000
_X=50
_Y=-25
_Z=0.000000
_DIVERGENCE=3.000000
_ANTISCATTER=3.000000
_DETECTOR=1
; S.C.
_HV=687
_GAIN=80
_LLD=0.690000
_ULD=1.866000
_DETECTORSLIT='unkn'
_AUX1=0.000000
_AUX2=0.000000
_AUX3=0.000000
_TIMESTARTED=12868
_TEMP_RATE=0.000000
_TEMP_DELAY=0.000000
_KV=35
_MA=40
_RANGE_WL=1.788970
_3DPLANE=0
_2THETACOUNTS
   0.0000      5224
; (Data for Range number 146)
_DRIVE='PHI'
_STEPTIME=20
_STEPSIZE=5.000000
_STEPMODE='S'
_START=0.000000
_THETA=52
_2THETA=104
_KHI=45
_PHI=0.000000
_X=50
_Y=-25
_Z=0.000000
_DIVERGENCE=3.000000
_ANTISCATTER=3.000000
_DETECTOR=1
; S.C.
_HV=687
_GAIN=80
_LLD=0.690000
_ULD=1.866000
_DETECTORSLIT='unkn'
_AUX1=0.000000
_AUX2=0.000000
_AUX3=0.000000
_TIMESTARTED=12892
_TEMP_RATE=0.000000
_TEMP_DELAY=0.000000
_KV=35
_MA=40
_RANGE_WL=1.788970
_3DPLANE=0
_2THETACOUNTS
   0.0000      5114
; (Data for Range number 147)
_DRIVE='PHI'
_STEPTIME=20
_STEPSIZE=5.000000
_STEPMODE='S'
_START=0.000000
_THETA=52
_2THETA=104
_KHI=50
_PHI=0.000000
_X=50
_Y=-25
_Z=0.000000
_DIVERGENCE=3.000000
_ANTISCATTER=3.000000
_DETECTOR=1
; S.C.
_HV=687
_GAIN=80
_LLD=0.690000
_ULD=1.866000
_DETECTORSLIT='unkn'
_AUX1=0.000000
_AUX2=0.000000
_AUX3=0.000000
_TIMESTARTED=12917
_TEMP_RATE=0.000000
_TEMP_DELAY=0.000000
_KV=35
_MA=40
_RANGE_WL=1.788970
_3DPLANE=0
_2THETACOUNTS
   0.0000      5092
; (Data for Range number 148)
_DRIVE='PHI'
_STEPTIME=20
_STEPSIZE=5.000000
_STEPMODE='S'
_START=0.000000
_THETA=52
_2THETA=104
_KHI=55
_PHI=0.000000
_X=50
_Y=-25
_Z=0.000000
_DIVERGENCE=3.000000
_ANTISCATTER=3.000000
_DETECTOR=1
; S.C.
_HV=687
_GAIN=80
_LLD=0.690000
_ULD=1.866000
_DETECTORSLIT='unkn'
_AUX1=0.000000
_AUX2=0.000000
_AUX3=0.000000
_TIMESTARTED=12942
_TEMP_RATE=0.000000
_TEMP_DELAY=0.000000
_KV=35
_MA=40
_RANGE_WL=1.788970
_3DPLANE=0
_2THETACOUNTS
   0.0000      5234
; (Data for Range number 149)
_DRIVE='PHI'
_STEPTIME=20
_STEPSIZE=5.000000
_STEPMODE='S'
_START=0.000000
_THETA=52
_2THETA=104
_KHI=60
_PHI=0.000000
_X=50
_Y=-25
_Z=0.000000
_DIVERGENCE=3.000000
_ANTISCATTER=3.000000
_DETECTOR=1
; S.C.
_HV=687
_GAIN=80
_LLD=0.690000
_ULD=1.866000
_DETECTORSLIT='unkn'
_AUX1=0.000000
_AUX2=0.000000
_AUX3=0.000000
_TIMESTARTED=12967
_TEMP_RATE=0.000000
_TEMP_DELAY=0.000000
_KV=35
_MA=40
_RANGE_WL=1.788970
_3DPLANE=0
_2THETACOUNTS
   0.0000      5113
; (Data for Range number 150)
_DRIVE='PHI'
_STEPTIME=20
_STEPSIZE=5.000000
_STEPMODE='S'
_START=0.000000
_THETA=52
_2THETA=104
_KHI=65
_PHI=0.000000
_X=50
_Y=-25
_Z=0.000000
_DIVERGENCE=3.000000
_ANTISCATTER=3.000000
_DETECTOR=1
; S.C.
_HV=687
_GAIN=80
_LLD=0.690000
_ULD=1.866000
_DETECTORSLIT='unkn'
_AUX1=0.000000
_AUX2=0.000000
_AUX3=0.000000
_TIMESTARTED=12992
_TEMP_RATE=0.000000
_TEMP_DELAY=0.000000
_KV=35
_MA=40
_RANGE_WL=1.788970
_3DPLANE=0
_2THETACOUNTS
   0.0000      4963
; (Data for Range number 151)
_DRIVE='PHI'
_STEPTIME=20
_STEPSIZE=5.000000
_STEPMODE='S'
_START=0.000000
_THETA=52
_2THETA=104
_KHI=70
_PHI=0.000000
_X=50
_Y=-25
_Z=0.000000
_DIVERGENCE=3.000000
_ANTISCATTER=3.000000
_DETECTOR=1
; S.C.
_HV=687
_GAIN=80
_LLD=0.690000
_ULD=1.866000
_DETECTORSLIT='unkn'
_AUX1=0.000000
_AUX2=0.000000
_AUX3=0.000000
_TIMESTARTED=13016
_TEMP_RATE=0.000000
_TEMP_DELAY=0.000000
_KV=35
_MA=40
_RANGE_WL=1.788970
_3DPLANE=0
_2THETACOUNTS
   0.0000      4987
; (Data for Range number 152)
_DRIVE='PHI'
_STEPTIME=20
_STEPSIZE=5.000000
_STEPMODE='S'
_START=0.000000
_THETA=52
_2THETA=104
_KHI=75
_PHI=0.000000
_X=50
_Y=-25
_Z=0.000000
_DIVERGENCE=3.000000
_ANTISCATTER=3.000000
_DETECTOR=1
; S.C.
_HV=687
_GAIN=80
_LLD=0.690000
_ULD=1.866000
_DETECTORSLIT='unkn'
_AUX1=0.000000
_AUX2=0.000000
_AUX3=0.000000
_TIMESTARTED=13040
_TEMP_RATE=0.000000
_TEMP_DELAY=0.000000
_KV=35
_MA=40
_RANGE_WL=1.788970
_3DPLANE=0
_2THETACOUNTS
   0.0000      5010
; (Data for Range number 153)
_DRIVE='PHI'
_STEPTIME=20
_STEPSIZE=5.000000
_STEPMODE='S'
_START=0.000000
_THETA=52
_2THETA=104
_KHI=80
_PHI=0.000000
_X=50
_Y=-25
_Z=0.000000
_DIVERGENCE=3.000000
_ANTISCATTER=3.000000
_DETECTOR=1
; S.C.
_HV=687
_GAIN=80
_LLD=0.690000
_ULD=1.866000
_DETECTORSLIT='unkn'
_AUX1=0.000000
_AUX2=0.000000
_AUX3=0.000000
_TIMESTARTED=13065
_TEMP_RATE=0.000000
_TEMP_DELAY=0.000000
_KV=35
_MA=40
_RANGE_WL=1.788970
_3DPLANE=0
_2THETACOUNTS
   0.0000      4608