File: dat/uxd/fss.UXD
; C:\DIFFDAT1\GIFT\MML\youngung\10-1-fss(from_Hyukjong)\as_R.raw(Diffrac Plus V1.01 file) converted by XCH V1.0
_FILEVERSION=2
_SITE='Korea'
_USER='Admin'
_SAMPLE_CHANGER_CODE=0
_ATTACHMENTS_CODE=0
_GONIOMETER_RADIUS=300
_FIXED_DIVSLIT=1.000000
_FIXED_SAMPLESLIT=0.000000
_FIXED_DETSLIT=0.100000
_MONOCHROMATOR=0
; None
_THIN_FILM='N'
_BETA_FILTER='Y'
_FIXED_ANTISLIT=0.600000
_ANALYZER_CODE=0
; None
_DATEMEASURED='29-Mar-2011 13:41:00'
_WL_UNIT='A'
_WL1=1.788970
_WL2=1.792850
_WL3=1.620790
_WLRATIO=0.500000
_ANODE='Co'
; (Data for Range number 1)
_DRIVE='PHI'
_STEPTIME=2.000000
_STEPSIZE=5.000000
_STEPMODE='C'
_START=0.000000
_THETA=26.059
_2THETA=52.118
_KHI=0.000000
_PHI=0.000000
_X=0.000000
_Y=0.000000
_Z=0.000000
_DIVERGENCE=3.000000
_ANTISCATTER=3.000000
_DETECTOR=1
; S.C.
_HV=687
_GAIN=80
_LLD=0.690000
_ULD=1.866000
_DETECTORSLIT='unkn'
_AUX1=0.000000
_AUX2=0.000000
_AUX3=0.000000
_TIMESTARTED=14
_TEMP_RATE=0.000000
_TEMP_DELAY=0.000000
_KV=35
_MA=40
_RANGE_WL=1.788970
_3DPLANE=0
_2THETACOUNTS
   0.0000      5560
   5.0000      5647
  10.0000      5664
  15.0000      5454
  20.0000      5412
  25.0000      5222
  30.0000      4779
  35.0000      4616
  40.0000      4587
  45.0000      4695
  50.0000      4808
  55.0000      5032
  60.0000      5385
  65.0000      5424
  70.0000      5467
  75.0000      5573
  80.0000      5592
  85.0000      5484
  90.0000      5481
  95.0000      5564
 100.0000      5501
 105.0000      5466
 110.0000      5460
 115.0000      5181
 120.0000      5186
 125.0000      5267
 130.0000      5484
 135.0000      5466
 140.0000      5396
 145.0000      5508
 150.0000      5526
 155.0000      5532
 160.0000      5591
 165.0000      5476
 170.0000      5347
 175.0000      5401
 180.0000      5600
 185.0000      5748
 190.0000      5745
 195.0000      5665
 200.0000      5416
 205.0000      5245
 210.0000      5235
 215.0000      5227
 220.0000      5151
 225.0000      5161
 230.0000      5062
 235.0000      5067
 240.0000      5214
 245.0000      5166
 250.0000      5057
 255.0000      5225
 260.0000      5226
 265.0000      5276
 270.0000      5349
 275.0000      5256
 280.0000      5354
 285.0000      5351
 290.0000      5094
 295.0000      5239
 300.0000      5071
 305.0000      4913
 310.0000      4926
 315.0000      5050
 320.0000      4980
 325.0000      5055
 330.0000      5089
 335.0000      5245
 340.0000      5380
 345.0000      5489
 350.0000      5552
 355.0000      5718
; (Data for Range number 2)
_DRIVE='PHI'
_STEPTIME=2.000000
_STEPSIZE=5.000000
_STEPMODE='C'
_START=0.000000
_THETA=26.059
_2THETA=52.118
_KHI=5.000000
_PHI=0.000000
_X=0.000000
_Y=0.000000
_Z=0.000000
_DIVERGENCE=3.000000
_ANTISCATTER=3.000000
_DETECTOR=1
; S.C.
_HV=687
_GAIN=80
_LLD=0.690000
_ULD=1.866000
_DETECTORSLIT='unkn'
_AUX1=0.000000
_AUX2=0.000000
_AUX3=0.000000
_TIMESTARTED=219
_TEMP_RATE=0.000000
_TEMP_DELAY=0.000000
_KV=35
_MA=40
_RANGE_WL=1.788970
_3DPLANE=0
_2THETACOUNTS
   0.0000      4755
   5.0000      4419
  10.0000      4573
  15.0000      5022
  20.0000      4528
  25.0000      4737
  30.0000      4442
  35.0000      4763
  40.0000      4702
  45.0000      4571
  50.0000      4782
  55.0000      4800
  60.0000      4948
  65.0000      4771
  70.0000      4810
  75.0000      4749
  80.0000      5125
  85.0000      5106
  90.0000      5210
  95.0000      5153
 100.0000      4820
 105.0000      4841
 110.0000      4881
 115.0000      4927
 120.0000      4856
 125.0000      4529
 130.0000      4652
 135.0000      4966
 140.0000      5271
 145.0000      4877
 150.0000      4555
 155.0000      4891
 160.0000      5292
 165.0000      5216
 170.0000      4990
 175.0000      4617
 180.0000      4393
 185.0000      4678
 190.0000      5103
 195.0000      5874
 200.0000      6286
 205.0000      5859
 210.0000      5414
 215.0000      5509
 220.0000      5532
 225.0000      4937
 230.0000      4897
 235.0000      4978
 240.0000      5444
 245.0000      5395
 250.0000      5912
 255.0000      5357
 260.0000      5600
 265.0000      5598
 270.0000      5274
 275.0000      5486
 280.0000      5948
 285.0000      5765
 290.0000      5901
 295.0000      5791
 300.0000      6143
 305.0000      5859
 310.0000      5136
 315.0000      5381
 320.0000      4997
 325.0000      5257
 330.0000      5292
 335.0000      5409
 340.0000      5291
 345.0000      5685
 350.0000      5492
 355.0000      4942
; (Data for Range number 3)
_DRIVE='PHI'
_STEPTIME=2.000000
_STEPSIZE=5.000000
_STEPMODE='C'
_START=0.000000
_THETA=26.059
_2THETA=52.118
_KHI=10
_PHI=0.000000
_X=0.000000
_Y=0.000000
_Z=0.000000
_DIVERGENCE=3.000000
_ANTISCATTER=3.000000
_DETECTOR=1
; S.C.
_HV=687
_GAIN=80
_LLD=0.690000
_ULD=1.866000
_DETECTORSLIT='unkn'
_AUX1=0.000000
_AUX2=0.000000
_AUX3=0.000000
_TIMESTARTED=424
_TEMP_RATE=0.000000
_TEMP_DELAY=0.000000
_KV=35
_MA=40
_RANGE_WL=1.788970
_3DPLANE=0
_2THETACOUNTS
   0.0000      3894
   5.0000      4510
  10.0000      4053
  15.0000      4893
  20.0000      3894
  25.0000      4039
  30.0000      4801
  35.0000      4884
  40.0000      4721
  45.0000      4318
  50.0000      4795
  55.0000      5226
  60.0000      5404
  65.0000      5742
  70.0000      5011
  75.0000      4980
  80.0000      5297
  85.0000      4692
  90.0000      5061
  95.0000      5352
 100.0000      5133
 105.0000      5180
 110.0000      5048
 115.0000      5227
 120.0000      5368
 125.0000      4650
 130.0000      4932
 135.0000      4964
 140.0000      4835
 145.0000      4601
 150.0000      4470
 155.0000      4528
 160.0000      4723
 165.0000      4497
 170.0000      4540
 175.0000      4283
 180.0000      4607
 185.0000      4567
 190.0000      4749
 195.0000      4851
 200.0000      4642
 205.0000      4531
 210.0000      4910
 215.0000      4600
 220.0000      4525
 225.0000      4537
 230.0000      5137
 235.0000      5311
 240.0000      5340
 245.0000      5266
 250.0000      5622
 255.0000      6082
 260.0000      6000
 265.0000      6243
 270.0000      5298
 275.0000      6037
 280.0000      5829
 285.0000      6103
 290.0000      6423
 295.0000      5902
 300.0000      6234
 305.0000      6522
 310.0000      5388
 315.0000      5112
 320.0000      4719
 325.0000      4648
 330.0000      4614
 335.0000      4411
 340.0000      4862
 345.0000      4671
 350.0000      5060
 355.0000      3741
; (Data for Range number 4)
_DRIVE='PHI'
_STEPTIME=2.000000
_STEPSIZE=5.000000
_STEPMODE='C'
_START=0.000000
_THETA=26.059
_2THETA=52.118
_KHI=15
_PHI=0.000000
_X=0.000000
_Y=0.000000
_Z=0.000000
_DIVERGENCE=3.000000
_ANTISCATTER=3.000000
_DETECTOR=1
; S.C.
_HV=687
_GAIN=80
_LLD=0.690000
_ULD=1.866000
_DETECTORSLIT='unkn'
_AUX1=0.000000
_AUX2=0.000000
_AUX3=0.000000
_TIMESTARTED=629
_TEMP_RATE=0.000000
_TEMP_DELAY=0.000000
_KV=35
_MA=40
_RANGE_WL=1.788970
_3DPLANE=0
_2THETACOUNTS
   0.0000      4085
   5.0000      3973
  10.0000      4043
  15.0000      3950
  20.0000      4190
  25.0000      4462
  30.0000      4029
  35.0000      4099
  40.0000      4319
  45.0000      5157
  50.0000      4655
  55.0000      4909
  60.0000      4993
  65.0000      5455
  70.0000      5347
  75.0000      5138
  80.0000      5728
  85.0000      5775
  90.0000      5489
  95.0000      5900
 100.0000      5601
 105.0000      5479
 110.0000      5136
 115.0000      5269
 120.0000      4863
 125.0000      5221
 130.0000      4869
 135.0000      4862
 140.0000      4686
 145.0000      4550
 150.0000      4188
 155.0000      4561
 160.0000      4287
 165.0000      4216
 170.0000      4328
 175.0000      4723
 180.0000      4381
 185.0000      4811
 190.0000      4629
 195.0000      4382
 200.0000      4694
 205.0000      4604
 210.0000      4762
 215.0000      5064
 220.0000      4597
 225.0000      4619
 230.0000      4917
 235.0000      5543
 240.0000      5496
 245.0000      6491
 250.0000      5989
 255.0000      6904
 260.0000      6795
 265.0000      7380
 270.0000      6240
 275.0000      6440
 280.0000      6189
 285.0000      6872
 290.0000      6147
 295.0000      5912
 300.0000      5985
 305.0000      5591
 310.0000      5647
 315.0000      5176
 320.0000      4365
 325.0000      4294
 330.0000      4524
 335.0000      4248
 340.0000      4042
 345.0000      3958
 350.0000      4101
 355.0000      4378
; (Data for Range number 5)
_DRIVE='PHI'
_STEPTIME=2.000000
_STEPSIZE=5.000000
_STEPMODE='C'
_START=0.000000
_THETA=26.059
_2THETA=52.118
_KHI=20
_PHI=0.000000
_X=0.000000
_Y=0.000000
_Z=0.000000
_DIVERGENCE=3.000000
_ANTISCATTER=3.000000
_DETECTOR=1
; S.C.
_HV=687
_GAIN=80
_LLD=0.690000
_ULD=1.866000
_DETECTORSLIT='unkn'
_AUX1=0.000000
_AUX2=0.000000
_AUX3=0.000000
_TIMESTARTED=834
_TEMP_RATE=0.000000
_TEMP_DELAY=0.000000
_KV=35
_MA=40
_RANGE_WL=1.788970
_3DPLANE=0
_2THETACOUNTS
   0.0000      5294
   5.0000      5375
  10.0000      4909
  15.0000      4981
  20.0000      4890
  25.0000      4872
  30.0000      4626
  35.0000      5282
  40.0000      5249
  45.0000      5236
  50.0000      5217
  55.0000      4976
  60.0000      5312
  65.0000      6168
  70.0000      5982
  75.0000      6342
  80.0000      6801
  85.0000      6001
  90.0000      5923
  95.0000      6087
 100.0000      6479
 105.0000      6210
 110.0000      5994
 115.0000      5612
 120.0000      5671
 125.0000      5716
 130.0000      5622
 135.0000      5492
 140.0000      5502
 145.0000      5232
 150.0000      5362
 155.0000      4753
 160.0000      5484
 165.0000      5933
 170.0000      5610
 175.0000      5859
 180.0000      6054
 185.0000      5577
 190.0000      5882
 195.0000      5565
 200.0000      5765
 205.0000      5151
 210.0000      5195
 215.0000      5353
 220.0000      5435
 225.0000      5277
 230.0000      6085
 235.0000      6221
 240.0000      6067
 245.0000      6092
 250.0000      6512
 255.0000      7036
 260.0000      7410
 265.0000      7656
 270.0000      7379
 275.0000      7860
 280.0000      7308
 285.0000      7613
 290.0000      7418
 295.0000      6658
 300.0000      6648
 305.0000      5900
 310.0000      6212
 315.0000      5755
 320.0000      5296
 325.0000      5060
 330.0000      5433
 335.0000      5384
 340.0000      4722
 345.0000      5114
 350.0000      4915
 355.0000      5101
; (Data for Range number 6)
_DRIVE='PHI'
_STEPTIME=2.000000
_STEPSIZE=5.000000
_STEPMODE='C'
_START=0.000000
_THETA=26.059
_2THETA=52.118
_KHI=25
_PHI=0.000000
_X=0.000000
_Y=0.000000
_Z=0.000000
_DIVERGENCE=3.000000
_ANTISCATTER=3.000000
_DETECTOR=1
; S.C.
_HV=687
_GAIN=80
_LLD=0.690000
_ULD=1.866000
_DETECTORSLIT='unkn'
_AUX1=0.000000
_AUX2=0.000000
_AUX3=0.000000
_TIMESTARTED=1039
_TEMP_RATE=0.000000
_TEMP_DELAY=0.000000
_KV=35
_MA=40
_RANGE_WL=1.788970
_3DPLANE=0
_2THETACOUNTS
   0.0000      8842
   5.0000      8378
  10.0000      8336
  15.0000      8320
  20.0000      8192
  25.0000      7383
  30.0000      7183
  35.0000      6391
  40.0000      6823
  45.0000      6519
  50.0000      6313
  55.0000      5967
  60.0000      6485
  65.0000      7078
  70.0000      6638
  75.0000      6649
  80.0000      6552
  85.0000      6303
  90.0000      6615
  95.0000      6131
 100.0000      6560
 105.0000      6539
 110.0000      6433
 115.0000      6607
 120.0000      6394
 125.0000      6848
 130.0000      7140
 135.0000      6938
 140.0000      7869
 145.0000      7524
 150.0000      7946
 155.0000      9696
 160.0000     10587
 165.0000     10507
 170.0000     10865
 175.0000     10414
 180.0000     10656
 185.0000     11817
 190.0000     11287
 195.0000      9452
 200.0000      9286
 205.0000      8857
 210.0000      7646
 215.0000      7451
 220.0000      7237
 225.0000      6497
 230.0000      6033
 235.0000      6654
 240.0000      5784
 245.0000      6936
 250.0000      6373
 255.0000      7256
 260.0000      6949
 265.0000      6857
 270.0000      6722
 275.0000      6891
 280.0000      7958
 285.0000      7335
 290.0000      7542
 295.0000      7391
 300.0000      6944
 305.0000      6850
 310.0000      6770
 315.0000      6817
 320.0000      6712
 325.0000      6753
 330.0000      7236
 335.0000      7289
 340.0000      8270
 345.0000      8668
 350.0000      8742
 355.0000      9629
; (Data for Range number 7)
_DRIVE='PHI'
_STEPTIME=2.000000
_STEPSIZE=5.000000
_STEPMODE='C'
_START=0.000000
_THETA=26.059
_2THETA=52.118
_KHI=30
_PHI=0.000000
_X=0.000000
_Y=0.000000
_Z=0.000000
_DIVERGENCE=3.000000
_ANTISCATTER=3.000000
_DETECTOR=1
; S.C.
_HV=687
_GAIN=80
_LLD=0.690000
_ULD=1.866000
_DETECTORSLIT='unkn'
_AUX1=0.000000
_AUX2=0.000000
_AUX3=0.000000
_TIMESTARTED=1244
_TEMP_RATE=0.000000
_TEMP_DELAY=0.000000
_KV=35
_MA=40
_RANGE_WL=1.788970
_3DPLANE=0
_2THETACOUNTS
   0.0000     14167
   5.0000     13971
  10.0000     13622
  15.0000     12686
  20.0000     12702
  25.0000     11344
  30.0000     10512
  35.0000      9500
  40.0000      8758
  45.0000      7995
  50.0000      7696
  55.0000      7574
  60.0000      7049
  65.0000      6772
  70.0000      7348
  75.0000      7325
  80.0000      6806
  85.0000      6825
  90.0000      6190
  95.0000      5982
 100.0000      6615
 105.0000      6563
 110.0000      6417
 115.0000      6951
 120.0000      7267
 125.0000      8057
 130.0000      8729
 135.0000     10121
 140.0000     10846
 145.0000     11641
 150.0000     12472
 155.0000     13554
 160.0000     14393
 165.0000     15103
 170.0000     14234
 175.0000     15190
 180.0000     14262
 185.0000     14358
 190.0000     14297
 195.0000     13779
 200.0000     12214
 205.0000     11468
 210.0000     11031
 215.0000     10547
 220.0000     10156
 225.0000      8307
 230.0000      8278
 235.0000      7217
 240.0000      6980
 245.0000      6695
 250.0000      6991
 255.0000      6207
 260.0000      5853
 265.0000      6782
 270.0000      6880
 275.0000      6650
 280.0000      6976
 285.0000      7300
 290.0000      7415
 295.0000      8064
 300.0000      8387
 305.0000      8949
 310.0000      8521
 315.0000      8925
 320.0000      8942
 325.0000     10911
 330.0000     11252
 335.0000     12922
 340.0000     12800
 345.0000     14349
 350.0000     14519
 355.0000     14831
; (Data for Range number 8)
_DRIVE='PHI'
_STEPTIME=2.000000
_STEPSIZE=5.000000
_STEPMODE='C'
_START=0.000000
_THETA=26.059
_2THETA=52.118
_KHI=35
_PHI=0.000000
_X=0.000000
_Y=0.000000
_Z=0.000000
_DIVERGENCE=3.000000
_ANTISCATTER=3.000000
_DETECTOR=1
; S.C.
_HV=687
_GAIN=80
_LLD=0.690000
_ULD=1.866000
_DETECTORSLIT='unkn'
_AUX1=0.000000
_AUX2=0.000000
_AUX3=0.000000
_TIMESTARTED=1449
_TEMP_RATE=0.000000
_TEMP_DELAY=0.000000
_KV=35
_MA=40
_RANGE_WL=1.788970
_3DPLANE=0
_2THETACOUNTS
   0.0000     11610
   5.0000     11447
  10.0000     12064
  15.0000     12734
  20.0000     12915
  25.0000     12849
  30.0000     12344
  35.0000     11778
  40.0000     10888
  45.0000     10325
  50.0000      9246
  55.0000      8774
  60.0000      7372
  65.0000      6648
  70.0000      6681
  75.0000      6588
  80.0000      6317
  85.0000      6083
  90.0000      6106
  95.0000      5851
 100.0000      5532
 105.0000      5908
 110.0000      6615
 115.0000      6770
 120.0000      7504
 125.0000      8555
 130.0000      9454
 135.0000     10322
 140.0000     11073
 145.0000     11838
 150.0000     11424
 155.0000     10975
 160.0000     10585
 165.0000     10396
 170.0000     10783
 175.0000      9291
 180.0000      9698
 185.0000      9646
 190.0000      9668
 195.0000      9801
 200.0000     10667
 205.0000     10966
 210.0000     11148
 215.0000     11423
 220.0000     10795
 225.0000      9552
 230.0000      8562
 235.0000      8047
 240.0000      7341
 245.0000      6797
 250.0000      6435
 255.0000      6315
 260.0000      5815
 265.0000      6072
 270.0000      6557
 275.0000      6707
 280.0000      6546
 285.0000      7249
 290.0000      8490
 295.0000      8788
 300.0000      8812
 305.0000      9670
 310.0000      9854
 315.0000     10814
 320.0000     11664
 325.0000     12857
 330.0000     13418
 335.0000     12962
 340.0000     12776
 345.0000     12222
 350.0000     12100
 355.0000     12359
; (Data for Range number 9)
_DRIVE='PHI'
_STEPTIME=2.000000
_STEPSIZE=5.000000
_STEPMODE='C'
_START=0.000000
_THETA=26.059
_2THETA=52.118
_KHI=40
_PHI=0.000000
_X=0.000000
_Y=0.000000
_Z=0.000000
_DIVERGENCE=3.000000
_ANTISCATTER=3.000000
_DETECTOR=1
; S.C.
_HV=687
_GAIN=80
_LLD=0.690000
_ULD=1.866000
_DETECTORSLIT='unkn'
_AUX1=0.000000
_AUX2=0.000000
_AUX3=0.000000
_TIMESTARTED=1654
_TEMP_RATE=0.000000
_TEMP_DELAY=0.000000
_KV=35
_MA=40
_RANGE_WL=1.788970
_3DPLANE=0
_2THETACOUNTS
   0.0000      6537
   5.0000      6771
  10.0000      7264
  15.0000      7620
  20.0000      8873
  25.0000      9864
  30.0000     10844
  35.0000     10866
  40.0000     10886
  45.0000      9835
  50.0000      9278
  55.0000      8715
  60.0000      7867
  65.0000      6965
  70.0000      6527
  75.0000      6261
  80.0000      5988
  85.0000      5629
  90.0000      5561
  95.0000      5747
 100.0000      5849
 105.0000      5958
 110.0000      6848
 115.0000      7012
 120.0000      7686
 125.0000      8238
 130.0000      9436
 135.0000      9087
 140.0000      9592
 145.0000      8878
 150.0000      8292
 155.0000      8077
 160.0000      7646
 165.0000      6829
 170.0000      6641
 175.0000      6429
 180.0000      6580
 185.0000      6207
 190.0000      6619
 195.0000      6881
 200.0000      7633
 205.0000      8075
 210.0000      8693
 215.0000      9688
 220.0000      9430
[...]
_AUX1=0.000000
_AUX2=0.000000
_AUX3=0.000000
_TIMESTARTED=12619
_TEMP_RATE=0.000000
_TEMP_DELAY=0.000000
_KV=35
_MA=40
_RANGE_WL=1.788970
_3DPLANE=0
_2THETACOUNTS
   0.0000      9726
; (Data for Range number 137)
_DRIVE='PHI'
_STEPTIME=20
_STEPSIZE=5.000000
_STEPMODE='S'
_START=0.000000
_THETA=52.5
_2THETA=105
_KHI=0.000000
_PHI=0.000000
_X=0.000000
_Y=0.000000
_Z=0.000000
_DIVERGENCE=3.000000
_ANTISCATTER=3.000000
_DETECTOR=1
; S.C.
_HV=687
_GAIN=80
_LLD=0.690000
_ULD=1.866000
_DETECTORSLIT='unkn'
_AUX1=0.000000
_AUX2=0.000000
_AUX3=0.000000
_TIMESTARTED=12662
_TEMP_RATE=0.000000
_TEMP_DELAY=0.000000
_KV=35
_MA=40
_RANGE_WL=1.788970
_3DPLANE=0
_2THETACOUNTS
   0.0000     10601
; (Data for Range number 138)
_DRIVE='PHI'
_STEPTIME=20
_STEPSIZE=5.000000
_STEPMODE='S'
_START=0.000000
_THETA=52.5
_2THETA=105
_KHI=5.000000
_PHI=0.000000
_X=0.000000
_Y=0.000000
_Z=0.000000
_DIVERGENCE=3.000000
_ANTISCATTER=3.000000
_DETECTOR=1
; S.C.
_HV=687
_GAIN=80
_LLD=0.690000
_ULD=1.866000
_DETECTORSLIT='unkn'
_AUX1=0.000000
_AUX2=0.000000
_AUX3=0.000000
_TIMESTARTED=12686
_TEMP_RATE=0.000000
_TEMP_DELAY=0.000000
_KV=35
_MA=40
_RANGE_WL=1.788970
_3DPLANE=0
_2THETACOUNTS
   0.0000     10508
; (Data for Range number 139)
_DRIVE='PHI'
_STEPTIME=20
_STEPSIZE=5.000000
_STEPMODE='S'
_START=0.000000
_THETA=52.5
_2THETA=105
_KHI=10
_PHI=0.000000
_X=0.000000
_Y=0.000000
_Z=0.000000
_DIVERGENCE=3.000000
_ANTISCATTER=3.000000
_DETECTOR=1
; S.C.
_HV=687
_GAIN=80
_LLD=0.690000
_ULD=1.866000
_DETECTORSLIT='unkn'
_AUX1=0.000000
_AUX2=0.000000
_AUX3=0.000000
_TIMESTARTED=12711
_TEMP_RATE=0.000000
_TEMP_DELAY=0.000000
_KV=35
_MA=40
_RANGE_WL=1.788970
_3DPLANE=0
_2THETACOUNTS
   0.0000     10557
; (Data for Range number 140)
_DRIVE='PHI'
_STEPTIME=20
_STEPSIZE=5.000000
_STEPMODE='S'
_START=0.000000
_THETA=52.5
_2THETA=105
_KHI=15
_PHI=0.000000
_X=0.000000
_Y=0.000000
_Z=0.000000
_DIVERGENCE=3.000000
_ANTISCATTER=3.000000
_DETECTOR=1
; S.C.
_HV=687
_GAIN=80
_LLD=0.690000
_ULD=1.866000
_DETECTORSLIT='unkn'
_AUX1=0.000000
_AUX2=0.000000
_AUX3=0.000000
_TIMESTARTED=12736
_TEMP_RATE=0.000000
_TEMP_DELAY=0.000000
_KV=35
_MA=40
_RANGE_WL=1.788970
_3DPLANE=0
_2THETACOUNTS
   0.0000     10589
; (Data for Range number 141)
_DRIVE='PHI'
_STEPTIME=20
_STEPSIZE=5.000000
_STEPMODE='S'
_START=0.000000
_THETA=52.5
_2THETA=105
_KHI=20
_PHI=0.000000
_X=0.000000
_Y=0.000000
_Z=0.000000
_DIVERGENCE=3.000000
_ANTISCATTER=3.000000
_DETECTOR=1
; S.C.
_HV=687
_GAIN=80
_LLD=0.690000
_ULD=1.866000
_DETECTORSLIT='unkn'
_AUX1=0.000000
_AUX2=0.000000
_AUX3=0.000000
_TIMESTARTED=12761
_TEMP_RATE=0.000000
_TEMP_DELAY=0.000000
_KV=35
_MA=40
_RANGE_WL=1.788970
_3DPLANE=0
_2THETACOUNTS
   0.0000     10421
; (Data for Range number 142)
_DRIVE='PHI'
_STEPTIME=20
_STEPSIZE=5.000000
_STEPMODE='S'
_START=0.000000
_THETA=52.5
_2THETA=105
_KHI=25
_PHI=0.000000
_X=0.000000
_Y=0.000000
_Z=0.000000
_DIVERGENCE=3.000000
_ANTISCATTER=3.000000
_DETECTOR=1
; S.C.
_HV=687
_GAIN=80
_LLD=0.690000
_ULD=1.866000
_DETECTORSLIT='unkn'
_AUX1=0.000000
_AUX2=0.000000
_AUX3=0.000000
_TIMESTARTED=12786
_TEMP_RATE=0.000000
_TEMP_DELAY=0.000000
_KV=35
_MA=40
_RANGE_WL=1.788970
_3DPLANE=0
_2THETACOUNTS
   0.0000     10472
; (Data for Range number 143)
_DRIVE='PHI'
_STEPTIME=20
_STEPSIZE=5.000000
_STEPMODE='S'
_START=0.000000
_THETA=52.5
_2THETA=105
_KHI=30
_PHI=0.000000
_X=0.000000
_Y=0.000000
_Z=0.000000
_DIVERGENCE=3.000000
_ANTISCATTER=3.000000
_DETECTOR=1
; S.C.
_HV=687
_GAIN=80
_LLD=0.690000
_ULD=1.866000
_DETECTORSLIT='unkn'
_AUX1=0.000000
_AUX2=0.000000
_AUX3=0.000000
_TIMESTARTED=12811
_TEMP_RATE=0.000000
_TEMP_DELAY=0.000000
_KV=35
_MA=40
_RANGE_WL=1.788970
_3DPLANE=0
_2THETACOUNTS
   0.0000     10654
; (Data for Range number 144)
_DRIVE='PHI'
_STEPTIME=20
_STEPSIZE=5.000000
_STEPMODE='S'
_START=0.000000
_THETA=52.5
_2THETA=105
_KHI=35
_PHI=0.000000
_X=0.000000
_Y=0.000000
_Z=0.000000
_DIVERGENCE=3.000000
_ANTISCATTER=3.000000
_DETECTOR=1
; S.C.
_HV=687
_GAIN=80
_LLD=0.690000
_ULD=1.866000
_DETECTORSLIT='unkn'
_AUX1=0.000000
_AUX2=0.000000
_AUX3=0.000000
_TIMESTARTED=12836
_TEMP_RATE=0.000000
_TEMP_DELAY=0.000000
_KV=35
_MA=40
_RANGE_WL=1.788970
_3DPLANE=0
_2THETACOUNTS
   0.0000     10618
; (Data for Range number 145)
_DRIVE='PHI'
_STEPTIME=20
_STEPSIZE=5.000000
_STEPMODE='S'
_START=0.000000
_THETA=52.5
_2THETA=105
_KHI=40
_PHI=0.000000
_X=0.000000
_Y=0.000000
_Z=0.000000
_DIVERGENCE=3.000000
_ANTISCATTER=3.000000
_DETECTOR=1
; S.C.
_HV=687
_GAIN=80
_LLD=0.690000
_ULD=1.866000
_DETECTORSLIT='unkn'
_AUX1=0.000000
_AUX2=0.000000
_AUX3=0.000000
_TIMESTARTED=12861
_TEMP_RATE=0.000000
_TEMP_DELAY=0.000000
_KV=35
_MA=40
_RANGE_WL=1.788970
_3DPLANE=0
_2THETACOUNTS
   0.0000     10395
; (Data for Range number 146)
_DRIVE='PHI'
_STEPTIME=20
_STEPSIZE=5.000000
_STEPMODE='S'
_START=0.000000
_THETA=52.5
_2THETA=105
_KHI=45
_PHI=0.000000
_X=0.000000
_Y=0.000000
_Z=0.000000
_DIVERGENCE=3.000000
_ANTISCATTER=3.000000
_DETECTOR=1
; S.C.
_HV=687
_GAIN=80
_LLD=0.690000
_ULD=1.866000
_DETECTORSLIT='unkn'
_AUX1=0.000000
_AUX2=0.000000
_AUX3=0.000000
_TIMESTARTED=12885
_TEMP_RATE=0.000000
_TEMP_DELAY=0.000000
_KV=35
_MA=40
_RANGE_WL=1.788970
_3DPLANE=0
_2THETACOUNTS
   0.0000     10409
; (Data for Range number 147)
_DRIVE='PHI'
_STEPTIME=20
_STEPSIZE=5.000000
_STEPMODE='S'
_START=0.000000
_THETA=52.5
_2THETA=105
_KHI=50
_PHI=0.000000
_X=0.000000
_Y=0.000000
_Z=0.000000
_DIVERGENCE=3.000000
_ANTISCATTER=3.000000
_DETECTOR=1
; S.C.
_HV=687
_GAIN=80
_LLD=0.690000
_ULD=1.866000
_DETECTORSLIT='unkn'
_AUX1=0.000000
_AUX2=0.000000
_AUX3=0.000000
_TIMESTARTED=12910
_TEMP_RATE=0.000000
_TEMP_DELAY=0.000000
_KV=35
_MA=40
_RANGE_WL=1.788970
_3DPLANE=0
_2THETACOUNTS
   0.0000     10374
; (Data for Range number 148)
_DRIVE='PHI'
_STEPTIME=20
_STEPSIZE=5.000000
_STEPMODE='S'
_START=0.000000
_THETA=52.5
_2THETA=105
_KHI=55
_PHI=0.000000
_X=0.000000
_Y=0.000000
_Z=0.000000
_DIVERGENCE=3.000000
_ANTISCATTER=3.000000
_DETECTOR=1
; S.C.
_HV=687
_GAIN=80
_LLD=0.690000
_ULD=1.866000
_DETECTORSLIT='unkn'
_AUX1=0.000000
_AUX2=0.000000
_AUX3=0.000000
_TIMESTARTED=12936
_TEMP_RATE=0.000000
_TEMP_DELAY=0.000000
_KV=35
_MA=40
_RANGE_WL=1.788970
_3DPLANE=0
_2THETACOUNTS
   0.0000     10234
; (Data for Range number 149)
_DRIVE='PHI'
_STEPTIME=20
_STEPSIZE=5.000000
_STEPMODE='S'
_START=0.000000
_THETA=52.5
_2THETA=105
_KHI=60
_PHI=0.000000
_X=0.000000
_Y=0.000000
_Z=0.000000
_DIVERGENCE=3.000000
_ANTISCATTER=3.000000
_DETECTOR=1
; S.C.
_HV=687
_GAIN=80
_LLD=0.690000
_ULD=1.866000
_DETECTORSLIT='unkn'
_AUX1=0.000000
_AUX2=0.000000
_AUX3=0.000000
_TIMESTARTED=12960
_TEMP_RATE=0.000000
_TEMP_DELAY=0.000000
_KV=35
_MA=40
_RANGE_WL=1.788970
_3DPLANE=0
_2THETACOUNTS
   0.0000     10411
; (Data for Range number 150)
_DRIVE='PHI'
_STEPTIME=20
_STEPSIZE=5.000000
_STEPMODE='S'
_START=0.000000
_THETA=52.5
_2THETA=105
_KHI=65
_PHI=0.000000
_X=0.000000
_Y=0.000000
_Z=0.000000
_DIVERGENCE=3.000000
_ANTISCATTER=3.000000
_DETECTOR=1
; S.C.
_HV=687
_GAIN=80
_LLD=0.690000
_ULD=1.866000
_DETECTORSLIT='unkn'
_AUX1=0.000000
_AUX2=0.000000
_AUX3=0.000000
_TIMESTARTED=12985
_TEMP_RATE=0.000000
_TEMP_DELAY=0.000000
_KV=35
_MA=40
_RANGE_WL=1.788970
_3DPLANE=0
_2THETACOUNTS
   0.0000     10204
; (Data for Range number 151)
_DRIVE='PHI'
_STEPTIME=20
_STEPSIZE=5.000000
_STEPMODE='S'
_START=0.000000
_THETA=52.5
_2THETA=105
_KHI=70
_PHI=0.000000
_X=0.000000
_Y=0.000000
_Z=0.000000
_DIVERGENCE=3.000000
_ANTISCATTER=3.000000
_DETECTOR=1
; S.C.
_HV=687
_GAIN=80
_LLD=0.690000
_ULD=1.866000
_DETECTORSLIT='unkn'
_AUX1=0.000000
_AUX2=0.000000
_AUX3=0.000000
_TIMESTARTED=13010
_TEMP_RATE=0.000000
_TEMP_DELAY=0.000000
_KV=35
_MA=40
_RANGE_WL=1.788970
_3DPLANE=0
_2THETACOUNTS
   0.0000     10414
; (Data for Range number 152)
_DRIVE='PHI'
_STEPTIME=20
_STEPSIZE=5.000000
_STEPMODE='S'
_START=0.000000
_THETA=52.5
_2THETA=105
_KHI=75
_PHI=0.000000
_X=0.000000
_Y=0.000000
_Z=0.000000
_DIVERGENCE=3.000000
_ANTISCATTER=3.000000
_DETECTOR=1
; S.C.
_HV=687
_GAIN=80
_LLD=0.690000
_ULD=1.866000
_DETECTORSLIT='unkn'
_AUX1=0.000000
_AUX2=0.000000
_AUX3=0.000000
_TIMESTARTED=13035
_TEMP_RATE=0.000000
_TEMP_DELAY=0.000000
_KV=35
_MA=40
_RANGE_WL=1.788970
_3DPLANE=0
_2THETACOUNTS
   0.0000     10260
; (Data for Range number 153)
_DRIVE='PHI'
_STEPTIME=20
_STEPSIZE=5.000000
_STEPMODE='S'
_START=0.000000
_THETA=52.5
_2THETA=105
_KHI=80
_PHI=0.000000
_X=0.000000
_Y=0.000000
_Z=0.000000
_DIVERGENCE=3.000000
_ANTISCATTER=3.000000
_DETECTOR=1
; S.C.
_HV=687
_GAIN=80
_LLD=0.690000
_ULD=1.866000
_DETECTORSLIT='unkn'
_AUX1=0.000000
_AUX2=0.000000
_AUX3=0.000000
_TIMESTARTED=13060
_TEMP_RATE=0.000000
_TEMP_DELAY=0.000000
_KV=35
_MA=40
_RANGE_WL=1.788970
_3DPLANE=0
_2THETACOUNTS
   0.0000      9946